time (s)	coil I (A)	last det (V)	int current (uC)
3409.205193	1.319213	0.328111	572.538269
3409.206148	0.700785	0.328111	1241.787842
3409.207045	0.096233	0.328111	1328.108765
3409.207948	0.095541	0.328111	1414.382080
3409.208835	0.095541	0.328111	1499.126709
3409.209774	0.095629	0.328111	1588.921997
3409.210678	0.095658	0.328111	1675.396729
3409.211579	0.095625	0.328111	1761.554810
3409.212465	0.095599	0.328111	1846.255859
3409.213421	0.095662	0.328111	1937.708374
3409.214326	0.095607	0.328111	2024.232422
3409.215220	0.095544	0.328111	2109.649170
3410.213848	1.339622	0.324638	592.112732
3410.214758	0.701074	0.324638	1230.090332
3410.215648	0.096786	0.324638	1316.229736
3410.216597	0.095651	0.324638	1407.002197
3410.217504	0.095559	0.324638	1493.674316
3410.218396	0.095570	0.324638	1578.922852
3410.219322	0.095585	0.324638	1667.434326
3410.220223	0.095654	0.324638	1753.618896
3410.221128	0.095544	0.324638	1840.086548
3410.222028	0.095493	0.324638	1926.030396
3410.222953	0.095680	0.324638	2014.534302
3410.223857	0.095654	0.324638	2101.005859
3411.224795	1.344203	0.325424	607.579712
3411.225693	0.706864	0.325424	1242.343506
3411.226604	0.096683	0.325424	1330.421997
3411.227544	0.095577	0.325424	1420.264771
3411.228448	0.095493	0.325424	1506.590576
3411.229338	0.095640	0.325424	1591.709839
3411.230270	0.095625	0.325424	1680.832275
3411.231174	0.095552	0.325424	1767.211060
3411.232089	0.095541	0.325424	1854.630859
3411.232975	0.095519	0.325424	1939.260498
3411.233920	0.095636	0.325424	2029.636475
3411.234818	0.095559	0.325424	2115.448486
3412.227788	1.321483	0.322197	580.131165
3412.228684	0.731997	0.322197	1236.000488
3412.229639	0.096094	0.322197	1327.770020
3412.230544	0.095533	0.322197	1414.227783
3412.231442	0.095519	0.322197	1500.003662
3412.232357	0.095530	0.322197	1587.413452
3412.233280	0.095603	0.322197	1675.655029
3412.234186	0.095541	0.322197	1762.214966
3412.235076	0.095526	0.322197	1847.233154
3412.236006	0.095592	0.322197	1936.133789
3412.236906	0.095596	0.322197	2022.169922
3412.237805	0.095555	0.322197	2108.074219
3413.239773	1.357775	0.306745	609.640808
3413.240705	0.659125	0.306745	1223.945068
3413.241593	0.096354	0.306745	1309.507202
3413.242530	0.095559	0.306745	1399.046021
3413.243438	0.095566	0.306745	1485.820312
3413.244329	0.095508	0.306745	1570.917725
3413.245214	0.095544	0.306745	1655.474487
3413.246147	0.095702	0.306745	1744.764404
3413.247048	0.095647	0.306745	1830.942383
3413.247950	0.095588	0.306745	1917.163086
3413.248838	0.095577	0.306745	2002.035767
3413.249775	0.095629	0.306745	2091.639893
3414.245067	1.324039	0.312453	579.929199
3414.246010	0.703934	0.312453	1243.739258
3414.246917	0.096240	0.312453	1331.029175
3414.247814	0.095482	0.312453	1416.676636
3414.248699	0.095490	0.312453	1501.184814
3414.249636	0.095618	0.312453	1590.778564
3414.250553	0.095519	0.312453	1678.369263
3414.251453	0.095490	0.312453	1764.309814
3414.252342	0.095526	0.312453	1849.232544
3414.253293	0.095559	0.312453	1940.109253
3414.254202	0.095482	0.312453	2026.902588
3414.255094	0.095574	0.312453	2112.154297
3415.251910	1.330620	0.309907	580.150391
3415.252877	0.614854	0.309907	1174.713745
3415.253790	0.095911	0.309907	1262.280151
3415.254685	0.095519	0.309907	1347.769531
3415.255618	0.095552	0.309907	1436.919312
3415.256522	0.095577	0.309907	1523.321289
3415.257425	0.095610	0.309907	1609.657471
3415.258315	0.095541	0.309907	1694.688721
3415.259266	0.095651	0.309907	1785.652466
3415.260165	0.095519	0.309907	1871.523926
3415.261067	0.095629	0.309907	1957.781006
3415.261953	0.095537	0.309907	2042.426880
3416.264642	1.317180	0.312074	570.338989
3416.265626	0.624049	0.312074	1184.403320
3416.266527	0.096042	0.312074	1270.937622
3416.267424	0.095577	0.312074	1356.670532
3416.268311	0.095588	0.312074	1441.457397
3416.269254	0.095746	0.312074	1531.745728
3416.270152	0.095654	0.312074	1617.643311
3416.271049	0.095533	0.312074	1703.336792
3416.271967	0.095581	0.312074	1791.080200
3416.272888	0.095647	0.312074	1879.171021
3416.273809	0.095548	0.312074	1967.170776
3416.274709	0.095552	0.312074	2053.167480
3417.265866	1.337175	0.311756	588.357117
3417.266860	0.565503	0.311756	1150.467041
3417.267757	0.095830	0.311756	1236.426636
3417.268643	0.095581	0.311756	1321.111450
3417.269593	0.095614	0.311756	1411.944702
3417.270498	0.095555	0.311756	1498.422363
3417.271387	0.095596	0.311756	1583.406982
3417.272310	0.095577	0.311756	1671.624878
3417.273237	0.095541	0.311756	1760.191162
3417.274149	0.095533	0.311756	1847.317627
3417.275037	0.095548	0.311756	1932.164307
3417.275972	0.095720	0.311756	2021.662720
3418.282456	1.345342	0.307893	600.022461
3418.283381	0.684056	0.307893	1232.774658
3418.284279	0.096449	0.307893	1319.385864
3418.285208	0.095621	0.307893	1408.218140
3418.286110	0.095647	0.307893	1494.491699
3418.287004	0.095537	0.307893	1579.901855
3418.287890	0.095548	0.307893	1664.557495
3418.288826	0.095632	0.307893	1754.069336
3418.289732	0.095669	0.307893	1840.745361
3418.290631	0.095468	0.307893	1926.570679
3418.291522	0.095577	0.307893	2011.730103
3418.292472	0.095684	0.307893	2102.629395
3419.279846	1.371595	0.323104	639.163452
3419.280759	0.648435	0.323104	1231.184570
3419.281678	0.096291	0.323104	1319.676514
3419.282604	0.095607	0.323104	1408.208252
3419.283521	0.095508	0.323104	1495.788940
3419.284419	0.095585	0.323104	1581.624023
3419.285350	0.095585	0.323104	1670.613403
3419.286249	0.095522	0.323104	1756.488037
3419.287142	0.095577	0.323104	1841.838623
3419.288025	0.095563	0.323104	1926.220581
3419.288959	0.095632	0.323104	2015.541138
3419.289862	0.095588	0.323104	2101.857422
3420.297173	1.352615	0.320477	608.676636
3420.298117	0.624254	0.320477	1197.972534
3420.299005	0.096171	0.320477	1283.372070
3420.299961	0.095504	0.320477	1374.674072
3420.300862	0.095515	0.320477	1460.733154
3420.301750	0.095522	0.320477	1545.557129
3420.302703	0.095541	0.320477	1636.607422
3420.303608	0.095475	0.320477	1723.012207
3420.304527	0.095618	0.320477	1810.884888
3420.305414	0.095533	0.320477	1895.623047
3420.306350	0.095588	0.320477	1985.093750
3420.307258	0.095552	0.320477	2071.854736
3421.298420	1.375994	0.330854	657.724976
3421.299346	0.605658	0.330854	1218.564209
3421.300251	0.095958	0.330854	1305.406372
3421.301141	0.095490	0.330854	1390.392090
3421.302094	0.095669	0.330854	1481.564575
3421.303006	0.095511	0.330854	1568.671021
3421.303900	0.095493	0.330854	1654.041870
3421.304827	0.095599	0.330854	1742.662476
3421.305733	0.095559	0.330854	1829.239014
3421.306634	0.095435	0.330854	1915.225586
3421.307528	0.095497	0.330854	2000.599731
3421.308460	0.095508	0.330854	2089.613037
3422.311421	1.345331	0.321122	659.212097
3422.312342	0.599542	0.321122	1211.390503
3422.313253	0.095980	0.321122	1298.828491
3422.314143	0.095522	0.321122	1383.843506
3422.315084	0.095640	0.321122	1473.840454
3422.315981	0.095629	0.321122	1559.619385
3422.316880	0.095486	0.321122	1645.461182
3422.317769	0.095482	0.321122	1730.344849
3422.318717	0.095621	0.321122	1820.993896
3422.319622	0.095522	0.321122	1907.441772
3422.320515	0.095552	0.321122	1992.769531
3422.321444	0.095621	0.321122	2081.601807
3423.317203	1.331155	0.328820	591.032715
3423.318103	0.717448	0.328820	1236.735474
3423.319049	0.096636	0.328820	1328.152832
3423.319958	0.095515	0.328820	1414.976074
3423.320877	0.095424	0.328820	1502.670288
3423.321772	0.095391	0.328820	1588.044922
3423.322718	0.095490	0.328820	1678.377930
3423.323626	0.095497	0.328820	1765.089111
3423.324516	0.095559	0.328820	1850.136719
3423.325424	0.095500	0.328820	1936.851196
3423.326351	0.095493	0.328820	2025.373291
3423.327246	0.095453	0.328820	2110.803711
3424.324628	1.361580	0.322181	697.128723
3424.325553	0.564840	0.322181	1219.605835
3424.326443	0.095845	0.322181	1304.907593
3424.327333	0.095519	0.322181	1389.919312
3424.328253	0.095625	0.322181	1477.894287
3424.329162	0.095599	0.322181	1564.794067
3424.330069	0.095559	0.322181	1651.466187
3424.330956	0.095508	0.322181	1736.181641
3424.331892	0.095592	0.322181	1825.655762
3424.332795	0.095497	0.322181	1911.889404
3424.333690	0.095479	0.322181	1997.342651
3424.334630	0.095658	0.322181	2087.261230
3425.337030	1.318674	0.331591	573.623352
3425.338023	0.635724	0.331591	1204.897095
3425.338926	0.095819	0.331591	1291.421753
3425.339818	0.095566	0.331591	1376.666992
3425.340706	0.095552	0.331591	1461.516968
3425.341643	0.095687	0.331591	1551.175903
3425.342553	0.095563	0.331591	1638.138062
3425.343450	0.095614	0.331591	1723.903809
3425.344358	0.095643	0.331591	1810.747925
3425.345285	0.095713	0.331591	1899.473755
3425.346189	0.095577	0.331591	1985.875732
3425.347080	0.095596	0.331591	2071.051514
3426.342363	1.352783	0.330149	612.810791
3426.343275	0.685609	0.330149	1238.086426
3426.344160	0.096519	0.330149	1323.505371
3426.345113	0.095588	0.330149	1414.601074
3426.346016	0.095493	0.330149	1500.831421
3426.346912	0.095519	0.330149	1586.416260
3426.347849	0.095555	0.330149	1675.951660
3426.348753	0.095640	0.330149	1762.409912
3426.349649	0.095464	0.330149	1847.945557
3426.350535	0.095490	0.330149	1932.549316
3426.351482	0.095691	0.330149	2023.168579
3426.352383	0.095566	0.330149	2109.273926
3427.356657	1.342042	0.329275	636.127991
3427.357575	0.645179	0.329275	1228.402710
3427.358511	0.096196	0.329275	1318.442383
3427.359426	0.095475	0.329275	1405.801880
3427.360323	0.095504	0.329275	1491.469116
3427.361217	0.095519	0.329275	1576.862915
3427.362157	0.095566	0.329275	1666.695312
3427.363065	0.095475	0.329275	1753.386475
3427.363979	0.095504	0.329275	1840.677246
3427.364867	0.095544	0.329275	1925.520752
3427.365814	0.095515	0.329275	2015.973633
3427.366704	0.095471	0.329275	2100.942871
3428.360648	1.335791	0.329533	583.740662
3428.361621	0.596931	0.329533	1164.554687
3428.362539	0.095933	0.329533	1252.620850
3428.363432	0.095508	0.329533	1337.909302
3428.364357	0.095504	0.329533	1426.250610
3428.365273	0.095479	0.329533	1513.708984
3428.366173	0.095504	0.329533	1599.662720
3428.367061	0.095541	0.329533	1684.502930
3428.368000	0.095581	0.329533	1774.253540
3428.368903	0.095563	0.329533	1860.546753
3428.369794	0.095471	0.329533	1945.611572
3428.370700	0.095610	0.329533	2032.234497
3429.373639	1.320575	0.322866	577.091248
3429.374620	0.584832	0.322866	1150.811035
3429.375524	0.095870	0.322866	1237.477783
3429.376421	0.095475	0.322866	1323.118774
3429.377354	0.095533	0.322866	1412.251465
3429.378265	0.095607	0.322866	1499.349121
3429.379173	0.095504	0.322866	1586.066895
3429.380070	0.095530	0.322866	1671.757080
3429.380997	0.095519	0.322866	1760.302979
3429.381901	0.095548	0.322866	1846.678467
3429.382800	0.095522	0.322866	1932.553101
3429.383688	0.095522	0.322866	2017.377075
3430.376397	1.325706	0.323047	580.659058
3430.377356	0.689696	0.323047	1242.077515
3430.378251	0.096145	0.323047	1328.127319
3430.379147	0.095541	0.323047	1413.731812
3430.380035	0.095574	0.323047	1498.601318
3430.380967	0.095695	0.323047	1587.788696
3430.381873	0.095566	0.323047	1674.371826
3430.382779	0.095541	0.323047	1760.931763
3430.383666	0.095497	0.323047	1845.637451
3430.384608	0.095537	0.323047	1935.633423
3430.385517	0.095537	0.323047	2022.476685
3430.386411	0.095504	0.323047	2107.857422
3431.388902	1.352197	0.322241	613.897583
3431.389804	0.696855	0.322241	1242.461182
3431.390693	0.096599	0.322241	1328.337769
3431.391641	0.095555	0.322241	1418.924316
3431.392532	0.095585	0.322241	1504.090332
3431.393445	0.095625	0.322241	1591.395996
3431.394338	0.095511	0.322241	1676.687744
3431.395283	0.095603	0.322241	1767.032593
3431.396186	0.095607	0.322241	1853.365479
3431.397077	0.095581	0.322241	1938.528198
3431.397994	0.095610	0.322241	2026.202881
3431.398908	0.095592	0.322241	2113.573975
3432.391369	1.326921	0.319313	582.518494
3432.392271	0.729719	0.319313	1240.725220
3432.393160	0.096965	0.319313	1326.927368
3432.394124	0.095596	0.319313	1419.081665
3432.395024	0.095577	0.319313	1505.101318
3432.395921	0.095570	0.319313	1590.827637
3432.396807	0.095519	0.319313	1675.457275
3432.397742	0.095647	0.319313	1764.887207
3432.398654	0.095563	0.319313	1852.040405
3432.399549	0.095544	0.319313	1937.552612
3432.400479	0.095588	0.319313	2026.449829
3432.401386	0.095552	0.319313	2113.115234
3433.404636	1.346730	0.324175	601.988220
3433.405533	0.718868	0.324175	1246.813232
3433.406417	0.096877	0.324175	1332.452881
3433.407391	0.095614	0.324175	1425.580933
3433.408291	0.095581	0.324175	1511.603882
3433.409186	0.095537	0.324175	1597.109619
3433.410079	0.095563	0.324175	1682.447144
3433.411028	0.095592	0.324175	1773.163940
3433.411941	0.095537	0.324175	1860.389282
3433.412836	0.095515	0.324175	1945.875366
3433.413770	0.095625	0.324175	2035.189087
3433.414672	0.095614	0.324175	2121.432861
3434.408146	1.337256	0.321851	592.404358
3434.409055	0.708190	0.321851	1236.148804
3434.409942	0.096669	0.321851	1321.893921
3434.410910	0.095687	0.321851	1414.519165
3434.411811	0.095522	0.321851	1500.584961
3434.412703	0.095555	0.321851	1585.820435
3434.413646	0.095592	0.321851	1675.963745
3434.414543	0.095676	0.321851	1761.785400
3434.415435	0.095574	0.321851	1847.037109
3434.416326	0.095537	0.321851	1932.160645
3434.417270	0.095592	0.321851	2022.399536
3434.418172	0.095640	0.321851	2108.666504
3435.421931	1.361777	0.331031	623.694031
3435.422836	0.688982	0.331031	1247.222656
3435.423720	0.096467	0.331031	1332.499756
3435.424670	0.095486	0.331031	1423.211304
3435.425574	0.095486	0.331031	1509.530518
3435.426496	0.095490	0.331031	1597.571777
3435.427383	0.095537	0.331031	1682.313232
3435.428342	0.095530	0.331031	1773.926270
3435.429241	0.095526	0.331031	1859.804199
3435.430132	0.095566	0.331031	1944.953857
3435.431065	0.095552	0.331031	2034.103638
3435.431979	0.095544	0.331031	2121.431152
3436.425422	1.327196	0.325593	586.620605
3436.426317	0.733392	0.325593	1243.006836
3436.427283	0.096222	0.325593	1335.957275
3436.428195	0.095563	0.325593	1423.110474
3436.429087	0.095522	0.325593	1508.316528
3436.430014	0.095537	0.325593	1596.879395
3436.430919	0.095618	0.325593	1683.413330
3436.431828	0.095592	0.325593	1770.306519
3436.432721	0.095530	0.325593	1855.614624
3436.433657	0.095629	0.325593	1945.123047
3436.434564	0.095585	0.325593	2031.818359
3436.435467	0.095563	0.325593	2118.111572
3437.437146	1.346045	0.328687	594.951843
3437.438065	0.693552	0.328687	1232.326294
3437.438962	0.096394	0.328687	1318.791748
3437.439892	0.095435	0.328687	1407.545898
3437.440803	0.095614	0.328687	1494.650269
3437.441709	0.095475	0.328687	1581.150513
3437.442599	0.095490	0.328687	1666.136230
3437.443528	0.095544	0.328687	1754.896973
3437.444427	0.095629	0.328687	1840.867187
3437.445320	0.095500	0.328687	1926.149170
3437.446209	0.095530	0.328687	2011.075195
3437.447146	0.095673	0.328687	2100.720459
3438.440668	1.342379	0.321863	601.385864
3438.441577	0.691399	0.321863	1229.867432
3438.442471	0.096533	0.321863	1316.168091
3438.443420	0.095607	0.321863	1406.898804
3438.444320	0.095585	0.321863	1492.925049
3438.445223	0.095581	0.321863	1579.234741
3438.446108	0.095559	0.321863	1663.804565
3438.447046	0.095592	0.321863	1753.469849
3438.447953	0.095544	0.321863	1840.128662
3438.448844	0.095515	0.321863	1925.232666
3438.449767	0.095533	0.321863	2013.410034
3438.450669	0.095460	0.321863	2099.515137
3439.450057	1.318341	0.329879	574.796692
3439.451022	0.634142	0.329879	1186.743652
3439.451917	0.096116	0.329879	1272.767212
3439.452809	0.095486	0.329879	1357.940552
3439.453743	0.095691	0.329879	1447.315918
3439.454648	0.095625	0.329879	1533.856567
3439.455549	0.095555	0.329879	1619.952026
3439.456435	0.095610	0.329879	1704.662842
3439.457364	0.095658	0.329879	1793.529053
3439.458275	0.095544	0.329879	1880.570068
3439.459173	0.095596	0.329879	1966.415039
3439.460095	0.095621	0.329879	2054.577881
3440.457441	1.358756	0.316183	615.516479
3440.458343	0.699316	0.316183	1246.299927
3440.459231	0.096639	0.316183	1332.115723
3440.460184	0.095504	0.316183	1423.131226
3440.461075	0.095508	0.316183	1508.228638
3440.461974	0.095460	0.316183	1594.047363
3440.462885	0.095588	0.316183	1681.128418
3440.463807	0.095636	0.316183	1769.304810
3440.464713	0.095511	0.316183	1855.838257
3440.465608	0.095515	0.316183	1941.324341
3440.466548	0.095577	0.316183	2031.167114
3440.467447	0.095493	0.316183	2117.015381
3441.463262	1.354808	0.327954	609.663757
3441.464190	0.658015	0.327954	1220.301758
3441.465091	0.096284	0.327954	1307.053833
3441.465981	0.095424	0.327954	1391.980835
3441.466939	0.095706	0.327954	1483.666748
3441.467846	0.095577	0.327954	1570.355469
3441.468740	0.095508	0.327954	1655.739502
3441.469686	0.095636	0.327954	1746.211182
3441.470581	0.095669	0.327954	1831.834839
3441.471483	0.095577	0.327954	1918.045654
3441.472367	0.095610	0.327954	2002.565186
3441.473297	0.095669	0.327954	2091.537354
3442.477792	1.345397	0.310672	613.500854
3442.478689	0.697775	0.310672	1239.404785
3442.479636	0.096562	0.310672	1330.849487
3442.480545	0.095662	0.310672	1417.805908
3442.481445	0.095654	0.310672	1503.894775
3442.482336	0.095500	0.310672	1588.985718
3442.483286	0.095702	0.310672	1679.902588
3442.484192	0.095599	0.310672	1766.515625
3442.485089	0.095577	0.310672	1852.248535
3442.485998	0.095643	0.310672	1939.188354
3442.486912	0.095658	0.310672	2026.619751
3442.487820	0.095643	0.310672	2113.463867
3443.478471	1.317627	0.325085	569.214844
3443.479433	0.694658	0.325085	1237.476074
3443.480339	0.096248	0.325085	1324.676392
3443.481235	0.095563	0.325085	1410.300659
3443.482125	0.095522	0.325085	1495.315674
3443.483082	0.095424	0.325085	1586.635986
3443.483976	0.095552	0.325085	1672.059204
3443.484879	0.095526	0.325085	1758.319336
3443.485765	0.095581	0.325085	1843.004150
3443.486724	0.095632	0.325085	1934.715576
3443.487630	0.095493	0.325085	2021.232422
3443.488532	0.095603	0.325085	2107.466309
3444.498396	1.335831	0.305157	599.788269
3444.499292	0.716532	0.305157	1241.801025
3444.500236	0.096797	0.305157	1333.177246
3444.501145	0.095471	0.305157	1419.960571
3444.502034	0.095526	0.305157	1504.883301
3444.502966	0.095588	0.305157	1593.971680
3444.503878	0.095621	0.305157	1681.178345
3444.504783	0.095570	0.305157	1767.669189
3444.505671	0.095588	0.305157	1852.551636
3444.506613	0.095614	0.305157	1942.619995
3444.507523	0.095515	0.305157	2029.538818
3444.508413	0.095618	0.305157	2114.638672
3445.496275	1.335476	0.325883	583.603027
3445.497201	0.704180	0.325883	1235.673462
3445.498098	0.096537	0.325883	1322.267090
3445.499003	0.095537	0.325883	1408.728149
3445.499925	0.095665	0.325883	1496.931519
3445.500825	0.095548	0.325883	1582.924805
3445.501713	0.095632	0.325883	1667.846313
3445.502634	0.095654	0.325883	1755.943970
3445.503532	0.095607	0.325883	1841.798828
3445.504434	0.095621	0.325883	1928.049316
3445.505323	0.095537	0.325883	2012.981812
3445.506272	0.095669	0.325883	2103.771729
3446.518214	1.319062	0.315075	575.111267
3446.519167	0.683082	0.315075	1226.088623
3446.520062	0.096259	0.315075	1312.239990
3446.520967	0.095544	0.315075	1398.707642
3446.521857	0.095464	0.315075	1483.670532
3446.522799	0.095603	0.315075	1573.728638
3446.523705	0.095563	0.315075	1660.308472
3446.524614	0.095500	0.315075	1747.118408
3446.525505	0.095533	0.315075	1832.238770
3446.526444	0.095665	0.315075	1922.068481
3446.527352	0.095618	0.315075	2008.889282
3446.528243	0.095526	0.315075	2094.003174
3447.517652	1.329880	0.322785	586.477234
3447.518544	0.729229	0.322785	1236.949097
3447.519511	0.096141	0.322785	1329.917847
3447.520421	0.095515	0.322785	1416.836670
3447.521309	0.095519	0.322785	1501.657349
3447.522236	0.095566	0.322785	1590.247437
3447.523148	0.095607	0.322785	1677.440796
3447.524060	0.095500	0.322785	1764.537231
3447.524958	0.095497	0.322785	1850.293335
3447.525892	0.095574	0.322785	1939.559204
3447.526794	0.095515	0.322785	2025.713867
3447.527695	0.095420	0.322785	2111.687256
3448.533493	1.394205	0.320775	665.035950
3448.534416	0.603805	0.320775	1222.347900
3448.535345	0.095830	0.320775	1311.374023
3448.536248	0.095475	0.320775	1397.587769
3448.537195	0.095497	0.320775	1488.023315
3448.538095	0.095471	0.320775	1573.947388
3448.538984	0.095533	0.320775	1658.876587
3448.539919	0.095522	0.320775	1748.190063
3448.540827	0.095446	0.320775	1834.854614
3448.541749	0.095457	0.320775	1922.865601
3448.542636	0.095508	0.320775	2007.581055
3448.543570	0.095424	0.320775	2096.706787
3449.539803	1.347045	0.311715	598.087830
3449.540707	0.704696	0.311715	1235.133057
3449.541594	0.096650	0.311715	1320.861938
3449.542531	0.095515	0.311715	1410.359619
3449.543444	0.095559	0.311715	1497.605103
3449.544345	0.095449	0.311715	1583.604858
3449.545247	0.095548	0.311715	1669.789185
3449.546182	0.095493	0.311715	1759.075317
3449.547085	0.095508	0.311715	1845.318848
3449.547974	0.095497	0.311715	1930.215576
3449.548908	0.095552	0.311715	2019.460937
3449.549808	0.095541	0.311715	2105.447754
3450.546904	1.341409	0.321122	600.951111
3450.547807	0.706113	0.321122	1238.571411
3450.548757	0.096581	0.321122	1330.323242
3450.549658	0.095468	0.321122	1416.339478
3450.550559	0.095438	0.321122	1502.329346
3450.551445	0.095435	0.321122	1586.884399
3450.552388	0.095621	0.321122	1677.055298
3450.553287	0.095526	0.321122	1762.933228
3450.554180	0.095541	0.321122	1848.251099
3450.555068	0.095537	0.321122	1933.088013
3450.556012	0.095643	0.321122	2023.375244
3450.556918	0.095515	0.321122	2109.911865
3451.558904	1.384856	0.312904	655.036865
3451.559823	0.628649	0.312904	1232.765015
3451.560717	0.096145	0.312904	1318.718628
3451.561602	0.095482	0.312904	1403.220337
3451.562548	0.095673	0.312904	1493.726562
3451.563446	0.095500	0.312904	1579.485962
3451.564338	0.095508	0.312904	1664.678955
3451.565271	0.095544	0.312904	1753.821899
3451.566183	0.095581	0.312904	1840.991821
3451.567081	0.095460	0.312904	1926.715088
3451.567973	0.095541	0.312904	2011.937500
3451.568927	0.095577	0.312904	2103.118408
3452.561384	1.341958	0.309931	629.378296
3452.562288	0.664973	0.309931	1230.514038
3452.563230	0.096357	0.309931	1321.282715
3452.564148	0.095383	0.309931	1408.844604
3452.565073	0.095515	0.309931	1497.196045
3452.565963	0.095387	0.309931	1582.090454
3452.566921	0.095541	0.309931	1673.618530
3452.567839	0.095475	0.309931	1761.264404
3452.568724	0.095464	0.309931	1845.749878
3452.569633	0.095442	0.309931	1932.506592
3452.570568	0.095453	0.309931	2021.755005
3452.571481	0.095515	0.309931	2108.960449
3453.574597	1.315887	0.310737	568.463379
3453.575552	0.682646	0.310737	1220.390747
3453.576469	0.095973	0.310737	1308.397949
3453.577373	0.095420	0.310737	1394.657593
3453.578265	0.095497	0.310737	1479.840820
3453.579209	0.095530	0.310737	1570.020996
3453.580121	0.095526	0.310737	1657.140869
3453.581016	0.095424	0.310737	1742.544922
3453.581906	0.095519	0.310737	1827.556641
3453.582840	0.095570	0.310737	1916.819092
3453.583744	0.095435	0.310737	2003.091919
3453.584632	0.095479	0.310737	2087.876953
3454.578172	1.346982	0.300339	657.327393
3454.579098	0.589596	0.300339	1203.293213
3454.580003	0.095812	0.300339	1290.002808
3454.580897	0.095482	0.300339	1375.363892
3454.581833	0.095651	0.300339	1464.892822
3454.582736	0.095504	0.300339	1551.133057
3454.583639	0.095588	0.300339	1637.449341
3454.584526	0.095526	0.300339	1722.181030
3454.585471	0.095574	0.300339	1812.498169
3454.586372	0.095508	0.300339	1898.550659
3454.587262	0.095500	0.300339	1983.546143
3454.588188	0.095468	0.300339	2071.948975
3455.587275	1.323168	0.310660	575.577942
3455.588219	0.691454	0.310660	1228.310425
3455.589130	0.096123	0.310660	1315.878540
3455.590035	0.095453	0.310660	1402.263428
3455.590919	0.095453	0.310660	1486.643799
3455.591855	0.095592	0.310660	1576.117920
3455.592759	0.095387	0.310660	1662.347778
3455.593652	0.095460	0.310660	1747.593750
3455.594536	0.095486	0.310660	1832.003174
3455.595488	0.095592	0.310660	1923.006836
3455.596395	0.095508	0.310660	2009.632446
3455.597291	0.095486	0.310660	2095.187744
3456.595661	1.329866	0.301858	586.470764
3456.596561	0.735414	0.301858	1248.343262
3456.597450	0.096892	0.301858	1334.480347
3456.598400	0.095511	0.301858	1425.216309
3456.599293	0.095588	0.301858	1510.576782
3456.600192	0.095508	0.301858	1596.438354
3456.601078	0.095603	0.301858	1681.142578
3456.602017	0.095636	0.301858	1770.944824
3456.602914	0.095548	0.301858	1856.651489
3456.603813	0.095548	0.301858	1942.549194
3456.604746	0.095574	0.301858	2031.719482
3456.605649	0.095566	0.301858	2118.015869
3457.599946	1.319736	0.316928	575.405029
3457.600840	0.739402	0.316928	1236.430298
3457.601808	0.096090	0.316928	1329.445557
3457.602718	0.095464	0.316928	1416.317627
3457.603617	0.095574	0.316928	1502.238403
3457.604547	0.095500	0.316928	1591.053833
3457.605446	0.095537	0.316928	1676.941650
3457.606349	0.095457	0.316928	1763.138916
3457.607241	0.095497	0.316928	1848.322021
3457.608165	0.095504	0.316928	1936.567871
3457.609073	0.095585	0.316928	2023.358765
3457.609974	0.095457	0.316928	2109.364990
3458.615037	1.362894	0.307752	662.366577
3458.615961	0.601857	0.307752	1218.482178
3458.616859	0.096013	0.307752	1304.702026
3458.617749	0.095435	0.307752	1389.638794
3458.618713	0.095566	0.307752	1481.764771
3458.619621	0.095453	0.307752	1568.436035
3458.620516	0.095526	0.307752	1653.931885
3458.621414	0.095497	0.307752	1739.687988
3458.622358	0.095522	0.307752	1829.861206
3458.623264	0.095497	0.307752	1916.381348
3458.624156	0.095493	0.307752	2001.561279
3458.625088	0.095607	0.307752	2090.666748
3459.615196	1.344423	0.319973	596.923706
3459.616126	0.666379	0.319973	1216.656494
3459.617021	0.096372	0.319973	1302.909546
3459.617971	0.095566	0.319973	1393.697632
3459.618878	0.095537	0.319973	1480.349854
3459.619773	0.095475	0.319973	1565.799805
3459.620664	0.095504	0.319973	1650.894043
3459.621598	0.095607	0.319973	1740.190674
3459.622503	0.095585	0.319973	1826.694824
3459.623399	0.095504	0.319973	1912.266602
3459.624314	0.095511	0.319973	1999.659546
3459.625233	0.095632	0.319973	2087.545654
3460.632537	1.341991	0.313182	602.553955
3460.633438	0.709384	0.313182	1241.708496
3460.634376	0.096713	0.313182	1332.424927
3460.635276	0.095541	0.313182	1418.411621
3460.636171	0.095559	0.313182	1503.937012
3460.637056	0.095632	0.313182	1588.571655
3460.637998	0.095632	0.313182	1678.657349
3460.638902	0.095515	0.313182	1765.003052
3460.639808	0.095500	0.313182	1851.526489
3460.640695	0.095522	0.313182	1936.254883
3460.641649	0.095629	0.313182	2027.484619
3460.642557	0.095530	0.313182	2114.225586
3461.629908	1.324951	0.314471	589.603271
3461.630809	0.716884	0.314471	1235.515381
3461.631754	0.096786	0.314471	1326.978027
3461.632664	0.095541	0.314471	1413.920166
3461.633559	0.095497	0.314471	1499.389771
3461.634441	0.095500	0.314471	1583.621216
3461.635380	0.095519	0.314471	1673.313354
3461.636281	0.095457	0.314471	1759.319702
3461.637196	0.095475	0.314471	1846.679199
3461.638090	0.095460	0.314471	1932.020630
3461.639037	0.095479	0.314471	2022.438721
3461.639934	0.095457	0.314471	2108.063232
3462.649295	1.321520	0.320912	581.468689
3462.650191	0.736278	0.320912	1241.173828
3462.651145	0.096141	0.320912	1332.892700
3462.652057	0.095515	0.320912	1420.002563
3462.652971	0.095500	0.320912	1507.290039
3462.653864	0.095515	0.320912	1592.585083
3462.654816	0.095526	0.320912	1683.526001
3462.655724	0.095526	0.320912	1770.263672
3462.656612	0.095533	0.320912	1855.097412
3462.657545	0.095665	0.320912	1944.353149
3462.658451	0.095585	0.320912	2030.952881
3462.659350	0.095431	0.320912	2116.745361
3463.646920	1.326200	0.322765	580.875610
3463.647908	0.585992	0.322765	1159.836182
3463.648810	0.095837	0.322765	1246.281494
3463.649707	0.095486	0.322765	1331.932251
3463.650640	0.095533	0.322765	1421.064941
3463.651545	0.095607	0.322765	1507.588989
3463.652451	0.095405	0.322765	1594.026123
3463.653348	0.095533	0.322765	1679.719604
3463.654287	0.095614	0.322765	1769.501221
3463.655179	0.095508	0.322765	1854.694214
3463.656078	0.095409	0.322765	1940.466797
3463.656964	0.095563	0.322765	2025.135376
3464.664791	1.344921	0.323788	599.834595
3464.665707	0.693853	0.323788	1235.403564
3464.666605	0.096453	0.323788	1322.018066
3464.667559	0.095592	0.323788	1413.212891
3464.668461	0.095563	0.323788	1499.410522
3464.669358	0.095618	0.323788	1585.179565
3464.670243	0.095541	0.323788	1669.733154
3464.671190	0.095607	0.323788	1760.272705
3464.672088	0.095555	0.323788	1846.081421
3464.672985	0.095508	0.323788	1931.751953
3464.673906	0.095570	0.323788	2019.771973
3464.674818	0.095603	0.323788	2106.961914
3465.664256	1.360642	0.323015	673.517822
3465.665186	0.581803	0.323015	1214.594604
3465.666083	0.095889	0.323015	1300.606689
3465.666971	0.095442	0.323015	1385.359131
3465.667909	0.095599	0.323015	1475.031372
3465.668824	0.095438	0.323015	1562.357300
3465.669723	0.095482	0.323015	1648.195801
3465.670608	0.095500	0.323015	1732.713745
3465.671560	0.095570	0.323015	1823.696411
3465.672456	0.095490	0.323015	1909.255005
3465.673345	0.095504	0.323015	1994.158203
3465.674287	0.095522	0.323015	2084.140381
3466.680572	1.384307	0.322721	676.925903
3466.681503	0.578456	0.322721	1215.468262
3466.682403	0.095889	0.322721	1301.768066
3466.683293	0.095500	0.322721	1386.763550
3466.684244	0.095676	0.322721	1477.751709
3466.685145	0.095614	0.322721	1563.899902
3466.686044	0.095570	0.322721	1649.817383
3466.686974	0.095640	0.322721	1738.762207
3466.687886	0.095669	0.322721	1826.012329
3466.688792	0.095563	0.322721	1912.592163
3466.689681	0.095596	0.322721	1997.576782
3466.690602	0.095621	0.322721	2085.644043
3467.681244	1.349147	0.322048	603.068604
3467.682144	0.715181	0.322048	1246.731201
3467.683032	0.096782	0.322048	1332.673828
3467.683992	0.095490	0.322048	1424.343750
3467.684886	0.095497	0.322048	1509.717896
3467.685784	0.095555	0.322048	1595.526611
3467.686673	0.095555	0.322048	1680.475342
3467.687618	0.095607	0.322048	1770.823730
3467.688524	0.095530	0.322048	1857.373779
3467.689426	0.095500	0.322048	1943.515259
3467.690354	0.095559	0.322048	2032.194092
3467.691258	0.095566	0.322048	2118.586182
3468.696013	1.319000	0.324775	576.403076
3468.696905	0.735527	0.324775	1232.493408
3468.697882	0.095922	0.324775	1326.208862
3468.698783	0.095475	0.324775	1412.231689
3468.699678	0.095519	0.324775	1497.721069
3468.700609	0.095574	0.324775	1586.700195
3468.701511	0.095537	0.324775	1672.874634
3468.702410	0.095438	0.324775	1758.673584
3468.703297	0.095468	0.324775	1843.353271
3468.704228	0.095647	0.324775	1932.400635
3468.705137	0.095438	0.324775	2019.154053
3468.706038	0.095504	0.324775	2105.203369
3469.696772	1.355988	0.321158	676.637817
3469.697702	0.576559	0.321158	1212.837524
3469.698598	0.095841	0.321158	1298.711182
3469.699485	0.095490	0.321158	1383.410400
3469.700430	0.095515	0.321158	1473.672241
3469.701329	0.095460	0.321158	1559.490967
3469.702231	0.095475	0.321158	1645.609253
3469.703116	0.095409	0.321158	1730.046143
3469.704067	0.095577	0.321158	1820.940186
3469.704973	0.095446	0.321158	1907.413818
3469.705864	0.095515	0.321158	1992.517822
3469.706796	0.095555	0.321158	2081.575439
3470.712266	1.324636	0.324477	578.866028
3470.713216	0.704000	0.324477	1247.666260
3470.714137	0.096035	0.324477	1336.114624
3470.715047	0.095493	0.324477	1423.013428
3470.715941	0.095519	0.324477	1508.407227
3470.716873	0.095552	0.324477	1597.461426
3470.717780	0.095541	0.324477	1684.116943
3470.718684	0.095563	0.324477	1770.505615
3470.719569	0.095530	0.324477	1855.049438
3470.720518	0.095665	0.324477	1945.835815
3470.721422	0.095482	0.324477	2032.151733
3470.722319	0.095519	0.324477	2117.832031
3471.713220	1.315474	0.323804	568.284607
3471.714195	0.659692	0.323804	1211.484619
3471.715092	0.095848	0.323804	1297.460571
3471.716009	0.095504	0.323804	1385.037842
3471.716908	0.095515	0.323804	1470.906006
3471.717843	0.095522	0.323804	1560.219482
3471.718753	0.095493	0.323804	1647.118286
3471.719679	0.095574	0.323804	1735.619507
3471.720571	0.095530	0.323804	1820.832031
3471.721521	0.095526	0.323804	1911.581787
3471.722414	0.095504	0.323804	1996.866943
3471.723301	0.095435	0.323804	2081.517334
3472.729288	1.320967	0.325678	575.941528
3472.730252	0.617897	0.325678	1171.593994
3472.731165	0.096006	0.325678	1259.247314
3472.732067	0.095490	0.325678	1345.378906
3472.732983	0.095555	0.325678	1432.907715
3472.733899	0.095577	0.325678	1520.456543
3472.734805	0.095544	0.325678	1607.019775
3472.735698	0.095548	0.325678	1692.344238
3472.736632	0.095559	0.325678	1781.596436
3472.737533	0.095522	0.325678	1867.662109
3472.738426	0.095552	0.325678	1952.989868
3472.739317	0.095541	0.325678	2038.116699
3473.729491	1.340676	0.325408	595.260254
3473.730459	0.588021	0.325408	1164.464844
3473.731364	0.095856	0.325408	1251.214233
3473.732262	0.095519	0.325408	1336.990112
3473.733191	0.095614	0.325408	1425.815552
3473.734091	0.095577	0.325408	1511.835205
3473.734983	0.095508	0.325408	1597.028198
3473.735870	0.095570	0.325408	1681.798828
3473.736816	0.095658	0.325408	1772.291260
3473.737718	0.095552	0.325408	1858.479004
3473.738615	0.095563	0.325408	1944.198730
3473.739523	0.095486	0.325408	2030.899902
3474.747411	1.415903	0.329549	724.942505
3474.748324	0.580027	0.329549	1254.506958
3474.749242	0.095826	0.329549	1342.475586
3474.750124	0.095350	0.329549	1426.574585
3474.751075	0.095431	0.329549	1517.329346
3474.751966	0.095504	0.329549	1602.423584
3474.752854	0.095541	0.329549	1687.263794
3474.753791	0.095544	0.329549	1776.788940
3474.754689	0.095493	0.329549	1862.541748
3474.755610	0.095475	0.329549	1950.474121
3474.756497	0.095493	0.329549	2035.176514
3474.757456	0.095548	0.329549	2126.807129
3475.747280	1.332345	0.326451	590.228821
3475.748179	0.727192	0.326451	1243.974854
3475.749065	0.096907	0.326451	1329.834229
3475.750004	0.095629	0.326451	1419.629517
3475.750917	0.095522	0.326451	1506.841553
3475.751818	0.095526	0.326451	1592.910645
3475.752752	0.095548	0.326451	1682.152588
3475.753660	0.095555	0.326451	1768.916870
3475.754574	0.095471	0.326451	1856.177490
3475.755463	0.095511	0.326451	1941.087158
3475.756399	0.095563	0.326451	2030.533936
3475.757295	0.095574	0.326451	2116.167969
3476.765945	1.343789	0.324743	650.393921
3476.766863	0.619636	0.324743	1219.219971
3476.767773	0.096046	0.324743	1306.621948
3476.768661	0.095519	0.324743	1391.442627
3476.769592	0.095515	0.324743	1480.367187
3476.770502	0.095500	0.324743	1567.272583
3476.771402	0.095511	0.324743	1653.232910
3476.772292	0.095508	0.324743	1738.234863
3476.773254	0.095563	0.324743	1830.166260
3476.774159	0.095563	0.324743	1916.650513
3476.775054	0.095530	0.324743	2002.149658
3476.775976	0.095607	0.324743	2090.299072
3477.765107	1.356665	0.327740	645.772522
3477.766016	0.648940	0.327740	1235.659424
3477.766967	0.096288	0.327740	1327.229126
3477.767872	0.095493	0.327740	1413.650391
3477.768788	0.095570	0.327740	1501.192627
3477.769685	0.095544	0.327740	1586.895996
3477.770628	0.095574	0.327740	1677.021973
3477.771534	0.095511	0.327740	1763.555420
3477.772424	0.095522	0.327740	1848.570435
3477.773340	0.095537	0.327740	1936.082397
3477.774257	0.095486	0.327740	2023.642944
3477.775154	0.095559	0.327740	2109.359375
3478.783965	1.348337	0.320276	605.403503
3478.784866	0.701444	0.320276	1237.404541
3478.785806	0.096647	0.320276	1328.252441
3478.786722	0.095541	0.320276	1415.767822
3478.787620	0.095446	0.320276	1501.477905
3478.788510	0.095526	0.320276	1586.496094
3478.789453	0.095654	0.320276	1676.698120
3478.790363	0.095515	0.320276	1763.616943
3478.791271	0.095486	0.320276	1850.318115
3478.792158	0.095537	0.320276	1935.059570
3478.793094	0.095643	0.320276	2024.581665
3478.794004	0.095559	0.320276	2111.540527
3479.783129	1.353098	0.323877	604.834900
3479.784056	0.667632	0.323877	1223.729614
3479.784957	0.096046	0.323877	1310.267212
3479.785890	0.095435	0.323877	1399.307617
3479.786791	0.095574	0.323877	1485.419556
3479.787686	0.095570	0.323877	1570.954712
3479.788573	0.095530	0.323877	1655.689697
3479.789527	0.095662	0.323877	1746.950928
3479.790424	0.095552	0.323877	1832.660889
3479.791324	0.095563	0.323877	1918.667358
3479.792217	0.095555	0.323877	2003.998291
3479.793160	0.095651	0.323877	2094.196777
3480.801496	1.338757	0.312678	601.101990
3480.802394	0.714518	0.312678	1242.739014
3480.803337	0.096588	0.312678	1333.821655
3480.804258	0.095435	0.312678	1421.716919
3480.805186	0.095460	0.312678	1510.303955
3480.806076	0.095504	0.312678	1595.302612
3480.807018	0.095548	0.312678	1685.308960
3480.807916	0.095475	0.312678	1771.045410
3480.808808	0.095468	0.312678	1856.202393
3480.809729	0.095566	0.312678	1944.218994
3480.810649	0.095464	0.312678	2032.045776
3480.811553	0.095438	0.312678	2118.322021
3481.803267	1.400358	0.321903	676.372803
3481.804173	0.640159	0.321903	1256.356567
3481.805062	0.096248	0.321903	1341.920654
3481.806028	0.095566	0.321903	1434.237793
3481.806928	0.095625	0.321903	1520.300293
3481.807825	0.095541	0.321903	1606.000366
3481.808747	0.095555	0.321903	1694.102417
3481.809661	0.095570	0.321903	1781.453491
3481.810563	0.095544	0.321903	1867.634521
3481.811457	0.095500	0.321903	1953.011963
3481.812393	0.095654	0.321903	2042.544434
3481.813295	0.095636	0.321903	2128.808105
3482.818253	1.319410	0.302946	577.901733
3482.819208	0.632139	0.302946	1181.594238
3482.820119	0.096042	0.302946	1269.088989
3482.821020	0.095424	0.302946	1355.065674
3482.821931	0.095435	0.302946	1442.006592
3482.822857	0.095581	0.302946	1530.514648
3482.823766	0.095453	0.302946	1617.281372
3482.824665	0.095490	0.302946	1703.126465
3482.825603	0.095552	0.302946	1792.754028
3482.826505	0.095566	0.302946	1878.954956
3482.827409	0.095508	0.302946	1965.294067
3482.828292	0.095519	0.302946	2049.637207
3483.822847	1.383230	0.308581	659.800720
3483.823775	0.617516	0.308581	1232.855469
3483.824672	0.096006	0.308581	1318.972778
3483.825556	0.095464	0.308581	1403.362793
3483.826489	0.095570	0.308581	1492.529663
3483.827395	0.095500	0.308581	1579.053101
3483.828285	0.095522	0.308581	1664.068115
3483.829218	0.095555	0.308581	1753.221313
3483.830131	0.095533	0.308581	1840.443359
3483.831037	0.095544	0.308581	1927.006592
3483.831924	0.095515	0.308581	2011.728516
3483.832871	0.095632	0.308581	2102.292236
3484.832465	1.346891	0.300601	602.060181
3484.833389	0.682778	0.300601	1232.947266
3484.834290	0.096383	0.300601	1319.788452
3484.835221	0.095391	0.300601	1408.597168
3484.836116	0.095530	0.300601	1494.096313
3484.837023	0.095457	0.300601	1580.675415
3484.837910	0.095490	0.300601	1665.374634
3484.838833	0.095610	0.300601	1753.623047
3484.839735	0.095457	0.300601	1839.724854
3484.840641	0.095446	0.300601	1926.198486
3484.841531	0.095508	0.300601	2011.200439
3484.842480	0.095544	0.300601	2101.872070
3485.840872	1.339578	0.302438	629.601501
3485.841778	0.660110	0.302438	1227.661011
3485.842721	0.096555	0.302438	1318.712524
3485.843644	0.095493	0.302438	1406.852661
3485.844562	0.095621	0.302438	1494.633057
3485.845449	0.095607	0.302438	1579.436157
3485.846405	0.095610	0.302438	1670.839600
3485.847298	0.095493	0.302438	1756.114990
3485.848211	0.095552	0.302438	1843.353760
3485.849107	0.095658	0.302438	1929.063232
3485.850067	0.095544	0.302438	2020.785889
3485.850971	0.095519	0.302438	2107.134766
3486.844104	1.315624	0.306805	567.033813
3486.845056	0.696694	0.306805	1230.286865
3486.845970	0.096031	0.306805	1318.059692
3486.846874	0.095435	0.306805	1404.332520
3486.847760	0.095533	0.306805	1488.975098
3486.848703	0.095574	0.306805	1579.101074
3486.849603	0.095530	0.306805	1665.077881
3486.850500	0.095544	0.306805	1750.781250
3486.851388	0.095468	0.306805	1835.556396
3486.852328	0.095592	0.306805	1925.412964
3486.853234	0.095464	0.306805	2011.903198
3486.854132	0.095490	0.306805	2097.652832
3487.857866	1.326002	0.299300	582.114990
3487.858834	0.631542	0.299300	1193.447388
3487.859731	0.095969	0.299300	1279.531738
3487.860627	0.095398	0.299300	1365.008301
3487.861554	0.095592	0.299300	1453.622070
3487.862464	0.095603	0.299300	1540.620850
3487.863372	0.095468	0.299300	1627.305420
3487.864270	0.095515	0.299300	1713.078003
3487.865211	0.095585	0.299300	1803.023193
3487.866105	0.095541	0.299300	1888.436646
3487.867003	0.095490	0.299300	1974.186279
3487.867891	0.095493	0.299300	2058.984131
3488.858317	1.342361	0.307582	594.665833
3488.859294	0.589783	0.307582	1170.883545
3488.860190	0.095995	0.307582	1256.894897
3488.861077	0.095563	0.307582	1341.659058
3488.862019	0.095603	0.307582	1431.717163
3488.862921	0.095581	0.307582	1517.931274
3488.863821	0.095479	0.307582	1603.861938
3488.864715	0.095526	0.307582	1689.262329
3488.865655	0.095592	0.307582	1779.118896
3488.866562	0.095460	0.307582	1865.701294
3488.867466	0.095581	0.307582	1952.106567
3488.868351	0.095607	0.307582	2036.718506
3489.872083	1.339138	0.300807	593.238220
3489.873018	0.666603	0.300807	1216.511841
3489.873917	0.096185	0.300807	1302.982422
3489.874842	0.095497	0.300807	1391.317017
3489.875746	0.095555	0.300807	1477.699097
3489.876649	0.095497	0.300807	1563.932739
3489.877535	0.095508	0.300807	1648.552612
3489.878475	0.095504	0.300807	1738.326538
3489.879374	0.095515	0.300807	1824.194702
3489.880270	0.095515	0.300807	1909.776245
3489.881161	0.095464	0.300807	1994.834595
3489.882109	0.095585	0.300807	2085.448975
3490.875074	1.314507	0.299324	566.552490
3490.876029	0.678629	0.299324	1214.643311
3490.876950	0.096141	0.299324	1303.189453
3490.877847	0.095519	0.299324	1388.869873
3490.878770	0.095526	0.299324	1477.040527
3490.879682	0.095500	0.299324	1564.136963
3490.880575	0.095446	0.299324	1649.369873
3490.881462	0.095548	0.299324	1734.121094
3490.882402	0.095515	0.299324	1823.905273
3490.883302	0.095460	0.299324	1909.819458
3490.884227	0.095453	0.299324	1998.113403
3490.885116	0.095431	0.299324	2082.951416
3491.886031	1.329672	0.290289	587.714844
3491.886926	0.734150	0.290289	1244.779541
3491.887884	0.096914	0.290289	1337.623169
3491.888781	0.095570	0.290289	1423.349487
3491.889676	0.095559	0.290289	1508.874878
3491.890563	0.095541	0.290289	1593.619507
3491.891492	0.095588	0.290289	1682.421143
3491.892399	0.095614	0.290289	1769.143066
3491.893305	0.095651	0.290289	1855.802490
3491.894190	0.095625	0.290289	1940.430664
3491.895140	0.095647	0.290289	2031.295288
3491.896039	0.095618	0.290289	2117.255615
3492.894715	1.400387	0.300553	680.588074
3492.895640	0.596096	0.300553	1231.977051
3492.896548	0.095980	0.300553	1319.127075
3492.897435	0.095581	0.300553	1403.907471
3492.898377	0.095684	0.300553	1494.041382
3492.899283	0.095581	0.300553	1580.637817
3492.900175	0.095555	0.300553	1665.873291
3492.901098	0.095651	0.300553	1754.158813
3492.902007	0.095680	0.300553	1841.131836
3492.902906	0.095511	0.300553	1926.996704
3492.903791	0.095585	0.300553	2011.589233
3492.904737	0.095599	0.300553	2102.026123
3493.899745	1.343203	0.292210	605.784607
3493.900650	0.697485	0.292210	1237.008911
3493.901536	0.096636	0.292210	1322.628174
3493.902499	0.095508	0.292210	1414.602173
3493.903393	0.095603	0.292210	1500.071289
3493.904308	0.095526	0.292210	1587.477661
3493.905204	0.095632	0.292210	1673.164185
3493.906140	0.095511	0.292210	1762.562988
3493.907067	0.095541	0.292210	1851.129272
3493.907967	0.095614	0.292210	1937.181885
3493.908889	0.095555	0.292210	2025.283936
3493.909816	0.095479	0.292210	2113.792480
3494.913482	1.318813	0.303530	571.046204
3494.914430	0.657092	0.303530	1193.969727
3494.915340	0.096145	0.303530	1281.461670
3494.916241	0.095603	0.303530	1367.599976
3494.917130	0.095621	0.303530	1452.607300
3494.918074	0.095651	0.303530	1542.901489
3494.918980	0.095640	0.303530	1629.551025
3494.919871	0.095596	0.303530	1714.726807
3494.920794	0.095563	0.303530	1802.931274
3494.921698	0.095651	0.303530	1889.399414
3494.922609	0.095563	0.303530	1976.457031
3494.923505	0.095537	0.303530	2062.058350
3495.914710	1.341522	0.299679	596.977417
3495.915629	0.700708	0.299679	1240.927979
3495.916529	0.096434	0.299679	1327.718872
3495.917457	0.095614	0.299679	1416.448730
3495.918350	0.095713	0.299679	1501.920288
3495.919245	0.095541	0.299679	1587.429321
3495.920141	0.095537	0.299679	1673.030518
3495.921089	0.095632	0.299679	1763.689941
3495.921982	0.095607	0.299679	1849.066772
3495.922882	0.095493	0.299679	1935.010620
3495.923771	0.095530	0.299679	2019.936646
3495.924721	0.095647	0.299679	2110.801270
3496.932357	1.393059	0.305435	675.633606
3496.933268	0.610646	0.305435	1231.931885
3496.934184	0.095944	0.305435	1319.816284
3496.935081	0.095555	0.305435	1405.529541
3496.936033	0.095544	0.305435	1496.487793
3496.936951	0.095522	0.305435	1584.177368
3496.937837	0.095585	0.305435	1668.865479
3496.938800	0.095640	0.305435	1760.966431
3496.939704	0.095563	0.305435	1847.355103
3496.940620	0.095577	0.305435	1934.904053
3496.941509	0.095446	0.305435	2019.755127
3496.942459	0.095566	0.305435	2110.543213
3497.931737	1.341742	0.303296	595.733398
3497.932647	0.706824	0.303296	1238.943115
3497.933531	0.096764	0.303296	1324.482422
3497.934469	0.095662	0.303296	1414.213013
3497.935376	0.095566	0.303296	1500.891724
3497.936271	0.095563	0.303296	1586.420410
3497.937193	0.095592	0.303296	1674.556274
3497.938098	0.095618	0.303296	1761.090332
3497.939003	0.095515	0.303296	1847.531494
3497.939900	0.095636	0.303296	1933.317017
3497.940839	0.095643	0.303296	2023.126099
3497.941733	0.095500	0.303296	2108.503418
3498.951377	1.338834	0.305584	590.425842
3498.952285	0.723534	0.305584	1247.394653
3498.953168	0.096863	0.305584	1332.924561
3498.954133	0.095552	0.305584	1425.131958
3498.955036	0.095581	0.305584	1511.441650
3498.955937	0.095490	0.305584	1597.477661
3498.956821	0.095482	0.305584	1681.883911
3498.957751	0.095559	0.305584	1770.753906
3498.958655	0.095504	0.305584	1857.089600
3498.959555	0.095544	0.305584	1943.079590
3498.960493	0.095533	0.305584	2032.689941
3498.961398	0.095647	0.305584	2119.250488
3499.950291	1.331334	0.306112	584.455750
3499.951242	0.694874	0.306112	1245.281128
3499.952152	0.096057	0.306112	1332.693115
3499.953043	0.095500	0.306112	1417.784058
3499.953933	0.095508	0.306112	1502.786011
3499.954888	0.095581	0.306112	1594.065918
3499.955799	0.095497	0.306112	1681.063477
3499.956715	0.095563	0.306112	1768.598999
3499.957602	0.095548	0.306112	1853.350098
3499.958559	0.095581	0.306112	1944.821167
3499.959456	0.095533	0.306112	2030.514648
3499.960346	0.095552	0.306112	2115.555664
3500.968659	1.339893	0.303208	601.611816
3500.969558	0.717004	0.303208	1246.198730
3500.970510	0.096504	0.303208	1338.070435
3500.971399	0.095504	0.303208	1422.973633
3500.972297	0.095559	0.303208	1508.785645
3500.973188	0.095493	0.303208	1593.869995
3500.974135	0.095603	0.303208	1684.406006
3500.975042	0.095555	0.303208	1771.074707
3500.975942	0.095533	0.303208	1857.054810
3500.976861	0.095603	0.303208	1944.913940
3500.977767	0.095658	0.303208	2031.580078
3500.978682	0.095533	0.303208	2118.993164
3501.968337	1.339369	0.311897	600.037292
3501.969239	0.707681	0.311897	1238.365234
3501.970186	0.096735	0.311897	1329.972900
3501.971096	0.095596	0.311897	1416.964966
3501.972007	0.095497	0.311897	1503.962524
3501.972901	0.095493	0.311897	1589.333374
3501.973854	0.095544	0.311897	1680.387207
3501.974754	0.095548	0.311897	1766.380493
3501.975644	0.095533	0.311897	1851.405273
3501.976534	0.095541	0.311897	1936.436523
3501.977482	0.095687	0.311897	2027.148071
3501.978399	0.095431	0.311897	2114.658203
3502.984925	1.341434	0.304199	596.938232
3502.985831	0.701957	0.304199	1232.911133
3502.986719	0.096599	0.304199	1318.691162
3502.987663	0.095610	0.304199	1408.947388
3502.988570	0.095493	0.304199	1495.559692
3502.989483	0.095508	0.304199	1582.758301
3502.990374	0.095490	0.304199	1667.839478
3502.991371	0.095577	0.304199	1763.130127
3502.992272	0.095420	0.304199	1849.103516
3502.993194	0.095526	0.304199	1937.178589
3502.994089	0.095537	0.304199	2022.684326
3502.995040	0.095464	0.304199	2113.470459
3503.985354	1.320271	0.312799	579.598938
3503.986247	0.739596	0.312799	1240.058105
3503.987212	0.096240	0.312799	1332.929932
3503.988112	0.095559	0.312799	1418.933105
3503.989011	0.095599	0.312799	1504.876953
3503.989948	0.095588	0.312799	1594.443237
3503.990851	0.095625	0.312799	1680.792603
3503.991765	0.095490	0.312799	1768.070068
3503.992661	0.095548	0.312799	1853.681152
3503.993608	0.095618	0.312799	1944.231079
3503.994509	0.095592	0.312799	2030.359497
3503.995407	0.095570	0.312799	2116.181396
3505.001169	1.342449	0.301512	593.362305
3505.002079	0.707574	0.301512	1237.255005
3505.002969	0.096661	0.301512	1323.283691
3505.003928	0.095603	0.301512	1414.967041
3505.004829	0.095563	0.301512	1501.069092
3505.005725	0.095552	0.301512	1586.683472
3505.006655	0.095541	0.301512	1675.536377
3505.007545	0.095566	0.301512	1760.590454
3505.008445	0.095577	0.301512	1846.610107
3505.009332	0.095530	0.301512	1931.344971
3505.010270	0.095621	0.301512	2021.037842
3505.011171	0.095596	0.301512	2107.169678
3506.002639	1.327108	0.309242	581.273376
3506.003584	0.649589	0.309242	1195.134521
3506.004497	0.096237	0.309242	1282.998535
3506.005392	0.095537	0.309242	1368.504272
3506.006308	0.095544	0.309242	1456.022949
3506.007225	0.095625	0.309242	1543.711060
3506.008127	0.095490	0.309242	1629.842529
3506.009018	0.095669	0.309242	1715.083496
3506.009952	0.095548	0.309242	1804.325439
3506.010857	0.095563	0.309242	1890.809692
3506.011751	0.095570	0.309242	1976.249268
3506.012663	0.095526	0.309242	2063.369141
3507.016689	1.371222	0.302382	638.989380
3507.017612	0.628883	0.302382	1219.448486
3507.018516	0.095958	0.302382	1306.194702
3507.019401	0.095475	0.302382	1390.689941
3507.020346	0.095592	0.302382	1481.024414
3507.021256	0.095515	0.302382	1567.943237
3507.022143	0.095427	0.302382	1652.587158
3507.023069	0.095541	0.302382	1741.057861
3507.023972	0.095552	0.302382	1827.341064
3507.024868	0.095369	0.302382	1912.791382
3507.025755	0.095544	0.302382	1997.539307
3507.026692	0.095563	0.302382	2087.081543
3508.018885	1.322358	0.312138	573.903503
3508.019855	0.622950	0.312138	1178.165405
3508.020761	0.096028	0.312138	1265.166626
3508.021669	0.095479	0.312138	1351.861084
3508.022555	0.095607	0.312138	1436.568604
3508.023502	0.095552	0.312138	1527.056152
3508.024407	0.095566	0.312138	1613.543701
3508.025294	0.095530	0.312138	1698.278564
3508.026226	0.095563	0.312138	1787.343018
3508.027132	0.095577	0.312138	1873.936157
3508.028025	0.095541	0.312138	1959.254028
3508.028912	0.095537	0.312138	2043.995483
3509.033474	1.394268	0.301725	688.768250
3509.034404	0.578405	0.301725	1226.684448
3509.035301	0.095837	0.301725	1312.650635
3509.036190	0.095449	0.301725	1397.505005
3509.037155	0.095511	0.301725	1489.673584
3509.038053	0.095460	0.301725	1575.396851
3509.038941	0.095552	0.301725	1660.246826
3509.039872	0.095629	0.301725	1749.277100
3509.040781	0.095493	0.301725	1836.080322
3509.041678	0.095416	0.301725	1921.668701
3509.042564	0.095566	0.301725	2006.340576
3509.043492	0.095599	0.301725	2095.056885
3510.035398	1.320945	0.311812	578.573792
3510.036377	0.594954	0.311812	1161.033447
3510.037287	0.095793	0.311812	1248.205444
3510.038189	0.095500	0.311812	1334.346924
3510.039077	0.095610	0.311812	1419.248901
3510.040023	0.095687	0.311812	1509.769043
3510.040925	0.095533	0.311812	1595.940186
3510.041815	0.095552	0.311812	1680.981201
3510.042734	0.095643	0.311812	1768.877441
3510.043636	0.095555	0.311812	1855.068481
3510.044533	0.095446	0.311812	1940.683105
3510.045425	0.095493	0.311812	2025.863037
3511.050463	1.352289	0.296162	608.529968
3511.051366	0.705212	0.296162	1245.336792
3511.052250	0.096735	0.296162	1330.850220
3511.053204	0.095673	0.296162	1422.121826
3511.054102	0.095555	0.296162	1507.930542
3511.054997	0.095585	0.296162	1593.478882
3511.055925	0.095614	0.296162	1682.208740
3511.056826	0.095643	0.296162	1768.383301
3511.057722	0.095559	0.296162	1854.004272
3511.058609	0.095490	0.296162	1938.703491
3511.059565	0.095607	0.296162	2030.103516
3511.060467	0.095570	0.296162	2116.307617
3512.050900	1.342405	0.309512	601.397339
3512.051799	0.717133	0.309512	1246.099487
3512.052746	0.096544	0.309512	1337.526855
3512.053643	0.095530	0.309512	1423.217041
3512.054546	0.095618	0.309512	1509.559814
3512.055431	0.095665	0.309512	1594.223633
3512.056365	0.095684	0.309512	1683.592163
3512.057272	0.095548	0.309512	1770.254272
3512.058167	0.095537	0.309512	1855.760010
3512.059099	0.095640	0.309512	1944.896118
3512.060011	0.095636	0.309512	2032.116089
3512.060917	0.095508	0.309512	2118.646240
3513.067981	1.325629	0.297286	584.602234
3513.068877	0.720066	0.297286	1229.781250
3513.069841	0.096229	0.297286	1322.546265
3513.070748	0.095449	0.297286	1409.118652
3513.071638	0.095530	0.297286	1494.140137
3513.072572	0.095647	0.297286	1583.474365
3513.073478	0.095585	0.297286	1670.074097
3513.074378	0.095500	0.297286	1756.024536
3513.075269	0.095607	0.297286	1841.210083
3513.076219	0.095643	0.297286	1932.071289
3513.077119	0.095577	0.297286	2018.090942
3513.078008	0.095618	0.297286	2103.094971
3514.066123	1.327680	0.305705	581.523621
3514.067107	0.600645	0.305705	1172.557861
3514.068002	0.095885	0.305705	1258.375000
3514.068887	0.095559	0.305705	1342.944824
3514.069828	0.095654	0.305705	1432.955566
3514.070743	0.095471	0.305705	1520.311768
3514.071652	0.095486	0.305705	1607.108398
3514.072538	0.095537	0.305705	1691.754272
3514.073474	0.095508	0.305705	1781.149536
3514.074385	0.095471	0.305705	1868.123779
3514.075303	0.095577	0.305705	1955.863770
3514.076187	0.095526	0.305705	2040.308838
3515.085002	1.319564	0.295300	577.969116
3515.085956	0.639207	0.295300	1187.772217
3515.086862	0.096116	0.295300	1274.853027
3515.087765	0.095511	0.295300	1361.099854
3515.088651	0.095614	0.295300	1445.813843
3515.089587	0.095654	0.295300	1535.346313
3515.090494	0.095468	0.295300	1621.935303
3515.091383	0.095511	0.295300	1706.844971
3515.092317	0.095559	0.295300	1796.097168
3515.093220	0.095533	0.295300	1882.363892
3515.094123	0.095497	0.295300	1968.597534
3515.095012	0.095500	0.295300	2053.497559
3516.082180	1.360335	0.303937	673.365601
3516.083108	0.577595	0.303937	1209.374023
3516.084013	0.095892	0.303937	1296.156616
3516.084902	0.095446	0.303937	1381.007690
3516.085857	0.095647	0.303937	1472.350586
3516.086759	0.095490	0.303937	1558.482178
3516.087656	0.095490	0.303937	1644.136230
3516.088539	0.095515	0.303937	1728.476074
3516.089472	0.095625	0.303937	1817.694214
3516.090377	0.095559	0.303937	1904.175171
3516.091276	0.095544	0.303937	1990.069580
3516.092211	0.095577	0.303937	2079.434326
3517.102600	1.385361	0.297890	692.680664
3517.103530	0.569813	0.297890	1222.606934
3517.104433	0.095801	0.297890	1309.114990
3517.105318	0.095519	0.297890	1393.649170
3517.106269	0.095574	0.297890	1484.539795
3517.107168	0.095541	0.297890	1570.430908
3517.108059	0.095585	0.297890	1655.596924
3517.108974	0.095607	0.297890	1743.077026
3517.109896	0.095625	0.297890	1831.243286
3517.110789	0.095559	0.297890	1916.577515
3517.111682	0.095684	0.297890	2002.022949
3517.112622	0.095566	0.297890	2091.855469
3518.099928	1.335634	0.296178	594.356934
3518.100834	0.707278	0.296178	1235.150635
3518.101757	0.096680	0.296178	1324.385986
3518.102689	0.095530	0.296178	1413.419800
3518.103594	0.095519	0.296178	1499.864258
3518.104490	0.095464	0.296178	1585.399902
3518.105416	0.095533	0.296178	1673.863892
3518.106308	0.095574	0.296178	1759.115723
3518.107202	0.095508	0.296178	1844.499756
3518.108086	0.095566	0.296178	1928.980469
3518.109021	0.095555	0.296178	2018.324829
3518.109930	0.095541	0.296178	2105.171387
3519.118289	1.329741	0.294092	579.767151
3519.119190	0.705077	0.294092	1215.041504
3519.120156	0.095933	0.294092	1307.712402
3519.121063	0.095533	0.294092	1394.361206
3519.121950	0.095563	0.294092	1479.125366
3519.122884	0.095508	0.294092	1568.329712
3519.123801	0.095555	0.294092	1655.953979
3519.124719	0.095522	0.294092	1743.643555
3519.125606	0.095552	0.294092	1828.397949
3519.126557	0.095511	0.294092	1919.229370
3519.127452	0.095526	0.294092	2004.725220
3519.128338	0.095519	0.294092	2089.354980
3520.117452	1.332283	0.295969	586.204346
3520.118413	0.676915	0.295969	1236.719971
3520.119324	0.095870	0.295969	1324.057861
3520.120224	0.095387	0.295969	1409.906128
3520.121111	0.095365	0.295969	1494.494873
3520.122066	0.095537	0.295969	1585.732788
3520.122965	0.095460	0.295969	1671.551514
3520.123861	0.095468	0.295969	1757.090454
3520.124752	0.095453	0.295969	1842.138916
3520.125687	0.095563	0.295969	1931.490112
3520.126584	0.095468	0.295969	2017.124512
3520.127477	0.095449	0.295969	2102.360596
3521.133017	1.344547	0.296807	607.735291
3521.133915	0.706666	0.296807	1242.321533
3521.134849	0.096665	0.296807	1332.606689
3521.135764	0.095515	0.296807	1420.003052
3521.136672	0.095380	0.296807	1506.607788
3521.137570	0.095548	0.296807	1592.409912
3521.138509	0.095599	0.296807	1682.177734
3521.139410	0.095563	0.296807	1768.279785
3521.140311	0.095581	0.296807	1854.398315
3521.141195	0.095519	0.296807	1938.836914
3521.142139	0.095533	0.296807	2029.020508
3521.143046	0.095497	0.296807	2115.636230
3522.135803	1.357885	0.296629	664.005554
3522.136727	0.605676	0.296629	1223.650391
3522.137659	0.095706	0.296629	1312.848022
3522.138542	0.095427	0.296629	1397.110229
3522.139485	0.095526	0.296629	1487.191406
3522.140384	0.095471	0.296629	1573.020020
3522.141305	0.095533	0.296629	1661.006348
3522.142200	0.095563	0.296629	1746.535034
3522.143138	0.095486	0.296629	1836.100708
3522.144040	0.095486	0.296629	1922.228882
3522.144929	0.095522	0.296629	2007.148315
3522.145852	0.095541	0.296629	2095.332520
3523.147204	1.319487	0.302152	573.976990
3523.148158	0.675209	0.302152	1218.126221
3523.149072	0.096021	0.302152	1305.888916
3523.149973	0.095460	0.302152	1391.898560
3523.150862	0.095464	0.302152	1476.765991
3523.151821	0.095588	0.302152	1568.435303
3523.152723	0.095533	0.302152	1654.606445
3523.153621	0.095566	0.302152	1740.425049
3523.154510	0.095548	0.302152	1825.367310
3523.155443	0.095687	0.302152	1914.643555
3523.156347	0.095559	0.302152	2001.028931
3523.157243	0.095559	0.302152	2086.649902
3524.154893	1.411088	0.293229	714.010315
3524.155809	0.579217	0.293229	1244.573486
3524.156709	0.095896	0.293229	1330.879883
3524.157596	0.095402	0.293229	1415.501099
3524.158537	0.095588	0.293229	1505.449707
3524.159445	0.095482	0.293229	1592.147461
3524.160340	0.095435	0.293229	1677.561401
3524.161263	0.095442	0.293229	1765.654297
3524.162173	0.095592	0.293229	1852.643066
3524.163081	0.095471	0.293229	1939.330933
3524.163970	0.095508	0.293229	2024.237427
3524.164903	0.095607	0.293229	2113.438477
3525.161681	1.342137	0.304992	602.619690
3525.162660	0.572040	0.304992	1162.646729
3525.163572	0.095753	0.304992	1249.973633
3525.164467	0.095464	0.304992	1335.413818
3525.165398	0.095486	0.304992	1424.311157
3525.166304	0.095405	0.304992	1510.748291
3525.167206	0.095457	0.304992	1596.850098
3525.168094	0.095449	0.304992	1681.609009
3525.169037	0.095522	0.304992	1771.686646
3525.169932	0.095482	0.304992	1857.143188
3525.170846	0.095479	0.304992	1944.410522
3525.171743	0.095380	0.304992	2029.966064
3526.173900	1.324779	0.298043	578.928467
3526.174879	0.587069	0.298043	1153.669189
3526.175784	0.095874	0.298043	1240.435181
3526.176682	0.095519	0.298043	1326.211060
3526.177585	0.095559	0.298043	1412.500854
3526.178511	0.095577	0.298043	1501.005493
3526.179417	0.095486	0.298043	1587.515625
3526.180305	0.095457	0.298043	1672.281006
3526.181243	0.095468	0.298043	1761.829590
3526.182152	0.095592	0.298043	1848.722778
3526.183047	0.095479	0.298043	1934.176025
3526.183937	0.095482	0.298043	2019.155151
3527.176393	1.319594	0.303699	575.342773
3527.177285	0.735996	0.303699	1231.851318
3527.178255	0.096105	0.303699	1325.072876
3527.179159	0.095479	0.303699	1411.385498
3527.180057	0.095511	0.303699	1497.154785
3527.180979	0.095559	0.303699	1585.260254
3527.181881	0.095651	0.303699	1671.537109
3527.182788	0.095555	0.303699	1758.205811
3527.183683	0.095588	0.303699	1843.757446
3527.184612	0.095680	0.303699	1932.644043
3527.185522	0.095577	0.303699	2019.619507
3527.186422	0.095614	0.303699	2105.672119
3528.192008	1.400365	0.300557	704.383606
3528.192922	0.596503	0.300557	1249.587158
3528.193841	0.095662	0.300557	1337.500244
3528.194737	0.095435	0.300557	1423.009644
3528.195692	0.095475	0.300557	1514.188110
3528.196597	0.095468	0.300557	1600.586182
3528.197487	0.095486	0.300557	1685.568604
3528.198416	0.095482	0.300557	1774.271484
3528.199324	0.095500	0.300557	1860.985962
3528.200221	0.095413	0.300557	1946.571045
3528.201109	0.095435	0.300557	2031.316895
3528.202060	0.095504	0.300557	2122.141357
3529.193168	1.330294	0.303030	585.329407
3529.194119	0.690538	0.303030	1242.031372
3529.195033	0.096057	0.303030	1329.827637
3529.195936	0.095457	0.303030	1416.024902
3529.196825	0.095537	0.303030	1500.957397
3529.197754	0.095596	0.303030	1589.765869
3529.198654	0.095585	0.303030	1675.792114
3529.199554	0.095537	0.303030	1761.775513
3529.200443	0.095526	0.303030	1846.698242
3529.201386	0.095574	0.303030	1936.824219
3529.202292	0.095504	0.303030	2023.350952
3529.203180	0.095482	0.303030	2108.139160
3530.207497	1.375364	0.303518	693.183289
3530.208407	0.588578	0.303518	1228.789062
3530.209310	0.095958	0.303518	1315.439331
3530.210198	0.095431	0.303518	1400.182007
3530.211132	0.095658	0.303518	1489.526489
3530.212032	0.095508	0.303518	1575.483521
3530.212932	0.095519	0.303518	1661.450439
3530.213835	0.095570	0.303518	1747.750244
3530.214763	0.095570	0.303518	1836.439209
3530.215672	0.095457	0.303518	1923.209229
3530.216565	0.095552	0.303518	2008.536987
3530.217487	0.095592	0.303518	2096.672852
3531.210697	1.314888	0.299147	566.716553
3531.211640	0.677153	0.299147	1205.272095
3531.212542	0.096127	0.299147	1291.978394
3531.213456	0.095435	0.299147	1379.205566
3531.214355	0.095460	0.299147	1465.024292
3531.215315	0.095519	0.299147	1556.722290
3531.216222	0.095490	0.299147	1643.331299
3531.217110	0.095468	0.299147	1728.106445
3531.218030	0.095570	0.299147	1816.030884
3531.218951	0.095504	0.299147	1903.990234
3531.219847	0.095475	0.299147	1989.535645
3531.220732	0.095511	0.299147	2074.063232
3532.221912	1.342229	0.312900	601.318604
3532.222813	0.705835	0.312900	1237.275879
3532.223745	0.096592	0.312900	1327.299438
3532.224663	0.095614	0.312900	1415.073120
3532.225568	0.095500	0.312900	1501.501099
3532.226463	0.095566	0.312900	1587.033081
3532.227398	0.095548	0.312900	1676.370605
3532.228294	0.095530	0.312900	1761.965332
3532.229187	0.095511	0.312900	1847.257080
3532.230070	0.095511	0.312900	1931.593750
3532.231012	0.095695	0.312900	2021.738037
3532.231910	0.095574	0.312900	2107.563232
3533.229264	1.331213	0.301677	587.065063
3533.230156	0.718129	0.301677	1227.635864
3533.231114	0.096196	0.301677	1319.791870
3533.232020	0.095449	0.301677	1406.268799
3533.232919	0.095471	0.301677	1492.097412
3533.233848	0.095618	0.301677	1580.926270
3533.234752	0.095603	0.301677	1667.351440
3533.235654	0.095552	0.301677	1753.539062
3533.236542	0.095530	0.301677	1838.369507
3533.237484	0.095479	0.301677	1928.310303
3533.238376	0.095500	0.301677	2013.496704
3533.239269	0.095493	0.301677	2098.771973
3534.235868	1.364604	0.308956	619.530457
3534.236812	0.629249	0.308956	1213.541748
3534.237700	0.096207	0.308956	1298.973755
3534.238660	0.095446	0.308956	1390.601440
3534.239550	0.095493	0.308956	1475.590332
3534.240439	0.095526	0.308956	1560.513062
3534.241377	0.095533	0.308956	1650.123413
3534.242285	0.095522	0.308956	1736.857788
3534.243206	0.095522	0.308956	1824.833984
3534.244092	0.095497	0.308956	1909.444214
3534.245056	0.095581	0.308956	2001.584351
3534.245956	0.095570	0.308956	2087.597412
3535.247561	1.322933	0.298772	576.798950
3535.248483	0.707417	0.298772	1229.037354
3535.249381	0.096606	0.298772	1315.789917
3535.250321	0.095647	0.298772	1405.698120
3535.251223	0.095709	0.298772	1492.027832
3535.252120	0.095577	0.298772	1577.760742
3535.253005	0.095555	0.298772	1662.327271
3535.253941	0.095684	0.298772	1751.887085
3535.254829	0.095629	0.298772	1836.805298
3535.255728	0.095522	0.298772	1922.679932
3535.256616	0.095658	0.298772	2007.624146
3535.257563	0.095647	0.298772	2098.201904
3536.250591	1.351758	0.308203	609.642761
3536.251515	0.677750	0.308203	1235.884033
3536.252406	0.096376	0.308203	1321.754761
3536.253327	0.095563	0.308203	1409.768066
3536.254225	0.095603	0.308203	1495.619629
3536.255140	0.095511	0.308203	1583.012573
3536.256042	0.095585	0.308203	1669.229980
3536.256966	0.095603	0.308203	1757.567139
3536.257868	0.095618	0.308203	1843.814331
3536.258768	0.095519	0.308203	1929.781250
3536.259655	0.095526	0.308203	2014.512939
3536.260605	0.095596	0.308203	2105.328857
3537.266636	1.324889	0.297000	585.600891
3537.267613	0.602670	0.297000	1174.409180
3537.268506	0.095962	0.297000	1260.103149
3537.269396	0.095457	0.297000	1345.059448
3537.270320	0.095511	0.297000	1433.312012
3537.271239	0.095544	0.297000	1521.117310
3537.272141	0.095493	0.297000	1607.252197
3537.273028	0.095508	0.297000	1691.967651
3537.273968	0.095588	0.297000	1781.820679
3537.274872	0.095446	0.297000	1868.103516
3537.275765	0.095563	0.297000	1953.441040
3537.276649	0.095490	0.297000	2037.853760
3538.266314	1.339435	0.305230	586.672485
3538.267301	0.569381	0.305230	1148.651611
3538.268208	0.095823	0.305230	1235.562866
3538.269105	0.095522	0.305230	1321.246460
3538.270051	0.095647	0.305230	1411.728516
3538.270950	0.095651	0.305230	1497.718384
3538.271847	0.095566	0.305230	1583.441406
3538.272732	0.095541	0.305230	1667.994995
3538.273670	0.095610	0.305230	1757.677490
3538.274571	0.095563	0.305230	1843.779541
3538.275478	0.095486	0.305230	1930.385254
3538.276388	0.095522	0.305230	2017.310669
3539.285459	1.335418	0.292609	587.583679
3539.286403	0.693435	0.292609	1242.186401
3539.287317	0.096167	0.292609	1330.083008
3539.288234	0.095347	0.292609	1417.515869
3539.289128	0.095438	0.292609	1502.837646
3539.290066	0.095508	0.292609	1592.423950
3539.290973	0.095391	0.292609	1678.943237
3539.291875	0.095533	0.292609	1765.114380
3539.292765	0.095497	0.292609	1850.106567
3539.293711	0.095581	0.292609	1940.526245
3539.294629	0.095508	0.292609	2028.202393
3539.295528	0.095526	0.292609	2114.080322
3540.283125	1.365989	0.302273	661.138611
3540.284043	0.613652	0.302273	1224.471436
3540.284941	0.096068	0.302273	1310.740601
3540.285830	0.095405	0.302273	1395.555908
3540.286779	0.095618	0.302273	1486.297119
3540.287676	0.095559	0.302273	1572.013672
3540.288581	0.095519	0.302273	1658.458130
3540.289467	0.095570	0.302273	1743.133179
3540.290406	0.095603	0.302273	1832.904419
3540.291303	0.095493	0.302273	1918.561768
3540.292194	0.095424	0.302273	2003.584229
3540.293125	0.095497	0.302273	2092.491699
3541.302473	1.322922	0.295159	578.117065
3541.303449	0.596426	0.295159	1160.228760
3541.304362	0.095940	0.295159	1247.821899
3541.305261	0.095548	0.295159	1333.719604
3541.306196	0.095537	0.295159	1423.046753
3541.307099	0.095566	0.295159	1509.343262
3541.308009	0.095574	0.295159	1596.315308
3541.308901	0.095541	0.295159	1681.537720
3541.309854	0.095596	0.295159	1772.640381
3541.310746	0.095636	0.295159	1857.947632
3541.311652	0.095526	0.295159	1944.494263
3541.312541	0.095541	0.295159	2029.430054
3542.300189	1.419166	0.299828	742.223938
3542.301114	0.538795	0.299828	1240.609497
3542.302008	0.095760	0.299828	1326.219360
3542.302893	0.095530	0.299828	1410.763184
3542.303831	0.095555	0.299828	1500.394165
3542.304735	0.095552	0.299828	1586.772949
3542.305629	0.095526	0.299828	1672.173340
3542.306568	0.095570	0.299828	1761.913574
3542.307479	0.095490	0.299828	1848.904541
3542.308392	0.095537	0.299828	1936.129883
3542.309278	0.095490	0.299828	2020.733643
3542.310229	0.095614	0.299828	2111.662598
3543.318730	1.323530	0.294986	577.059143
3543.319691	0.625074	0.294986	1177.755615
3543.320594	0.096171	0.294986	1264.597656
3543.321493	0.095508	0.294986	1350.459229
3543.322378	0.095548	0.294986	1435.019287
3543.323307	0.095654	0.294986	1523.882080
3543.324219	0.095566	0.294986	1611.038574
3543.325119	0.095490	0.294986	1696.979126
3543.326046	0.095665	0.294986	1785.660889
3543.326953	0.095621	0.294986	1872.389404
3543.327859	0.095500	0.294986	1958.912842
3543.328746	0.095563	0.294986	2043.677002
3544.317395	1.333004	0.299578	590.520813
3544.318292	0.725856	0.299578	1241.613403
3544.319237	0.096775	0.299578	1333.065674
3544.320153	0.095607	0.299578	1420.641357
3544.321064	0.095442	0.299578	1507.588867
3544.321964	0.095438	0.299578	1593.483276
3544.322902	0.095596	0.299578	1683.152100
3544.323799	0.095533	0.299578	1768.845581
3544.324696	0.095490	0.299578	1854.499634
3544.325581	0.095486	0.299578	1939.004639
3544.326519	0.095570	0.299578	2028.649414
3544.327429	0.095500	0.299578	2115.554932
3545.336332	1.362301	0.292794	687.961975
3545.337254	0.580192	0.292794	1222.898682
3545.338159	0.095746	0.292794	1309.548706
3545.339046	0.095361	0.292794	1394.134155
3545.339998	0.095493	0.292794	1485.043701
3545.340905	0.095442	0.292794	1571.609497
3545.341798	0.095394	0.292794	1656.796631
3545.342688	0.095442	0.292794	1741.739868
3545.343635	0.095460	0.292794	1832.140625
3545.344543	0.095391	0.292794	1918.755371
3545.345432	0.095468	0.292794	2003.625977
3545.346361	0.095581	0.292794	2092.420898
3546.334415	1.324413	0.299445	582.741638
3546.335309	0.739523	0.299445	1243.875000
3546.336264	0.096346	0.299445	1335.885864
3546.337162	0.095537	0.299445	1421.678223
3546.338051	0.095522	0.299445	1506.597656
3546.338981	0.095533	0.299445	1595.443726
3546.339905	0.095676	0.299445	1683.848633
3546.340817	0.095544	0.299445	1770.985107
3546.341713	0.095559	0.299445	1856.606079
3546.342636	0.095629	0.299445	1944.871338
3546.343542	0.095504	0.299445	2031.398071
3546.344450	0.095552	0.299445	2118.159180
3547.352008	1.329499	0.292460	582.320801
3547.352994	0.571168	0.292460	1145.492676
3547.353899	0.095720	0.292460	1232.119507
3547.354798	0.095570	0.292460	1318.036987
3547.355735	0.095537	0.292460	1407.555298
3547.356628	0.095581	0.292460	1492.909180
3547.357528	0.095519	0.292460	1578.876099
3547.358413	0.095566	0.292460	1663.452393
3547.359344	0.095570	0.292460	1752.428101
3547.360245	0.095522	0.292460	1838.493896
3547.361148	0.095577	0.292460	1924.800293
3547.362033	0.095522	0.292460	2009.337646
3548.351181	1.322040	0.304597	579.053467
3548.352081	0.740544	0.304597	1245.543457
3548.353056	0.096156	0.304597	1339.295532
3548.353958	0.095508	0.304597	1425.443604
3548.354848	0.095559	0.304597	1510.491211
3548.355778	0.095618	0.304597	1599.415649
3548.356675	0.095651	0.304597	1685.214233
3548.357578	0.095475	0.304597	1771.427979
3548.358467	0.095541	0.304597	1856.363770
3548.359418	0.095632	0.304597	1947.310059
3548.360330	0.095570	0.304597	2034.469971
3548.361225	0.095479	0.304597	2119.923340
3549.369107	1.420613	0.291977	724.512512
3549.370031	0.546998	0.291977	1229.938965
3549.370928	0.095786	0.291977	1315.859131
3549.371814	0.095361	0.291977	1400.349243
3549.372768	0.095592	0.291977	1491.544067
3549.373677	0.095515	0.291977	1578.367310
3549.374575	0.095497	0.291977	1664.123413
3549.375500	0.095640	0.291977	1752.590088
3549.376402	0.095618	0.291977	1838.837280
3549.377297	0.095533	0.291977	1924.339722
3549.378183	0.095522	0.291977	2008.972656
3549.379123	0.095596	0.291977	2098.832520
3550.367708	1.337549	0.303844	601.896973
3550.368612	0.703092	0.303844	1237.492187
3550.369552	0.096720	0.303844	1328.408936
3550.370466	0.095566	0.303844	1415.756592
3550.371367	0.095500	0.303844	1501.802490
3550.372250	0.095581	0.303844	1586.200562
3550.373187	0.095566	0.303844	1675.746338
3550.374096	0.095588	0.303844	1762.636230
3550.375014	0.095519	0.303844	1850.322510
3550.375908	0.095457	0.303844	1935.660645
3550.376865	0.095585	0.303844	2027.135254
3550.377766	0.095504	0.303844	2113.184570
3551.385824	1.343046	0.291441	601.684448
3551.386747	0.681299	0.291441	1230.523193
3551.387633	0.096398	0.291441	1315.931519
3551.388564	0.095493	0.291441	1404.835693
3551.389472	0.095599	0.291441	1491.639893
3551.390367	0.095486	0.291441	1577.099731
3551.391253	0.095479	0.291441	1661.693726
3551.392197	0.095570	0.291441	1751.911865
3551.393111	0.095471	0.291441	1839.172485
3551.394015	0.095508	0.291441	1925.511597
3551.394903	0.095493	0.291441	2010.309570
3551.395850	0.095577	0.291441	2100.821289
3552.385009	1.346334	0.300126	643.547729
3552.385950	0.606515	0.300126	1214.278198
3552.386852	0.095922	0.300126	1300.799561
3552.387744	0.095475	0.300126	1385.963135
3552.388675	0.095537	0.300126	1474.908203
3552.389584	0.095511	0.300126	1561.728149
3552.390490	0.095490	0.300126	1648.241699
3552.391383	0.095566	0.300126	1733.582520
3552.392326	0.095544	0.300126	1823.680908
3552.393233	0.095475	0.300126	1910.276611
3552.394125	0.095464	0.300126	1995.430420
3552.395052	0.095614	0.300126	2084.064697
3553.402059	1.318352	0.290253	574.801453
3553.403016	0.629260	0.290253	1177.003418
3553.403932	0.095852	0.290253	1264.803955
3553.404849	0.095358	0.290253	1352.246948
3553.405739	0.095526	0.290253	1437.265137
3553.406684	0.095438	0.290253	1527.454224
3553.407574	0.095383	0.290253	1612.345337
3553.408461	0.095464	0.290253	1697.021729
3553.409411	0.095471	0.290253	1787.719360
3553.410315	0.095460	0.290253	1874.015381
3553.411226	0.095442	0.290253	1960.962891
3553.412118	0.095490	0.290253	2046.139526
3554.402783	1.349949	0.299554	606.127014
3554.403695	0.687067	0.299554	1232.731689
3554.404584	0.096526	0.299554	1318.543213
3554.405535	0.095555	0.299554	1409.416382
3554.406436	0.095482	0.299554	1495.445801
3554.407331	0.095482	0.299554	1580.902344
3554.408256	0.095559	0.299554	1669.294434
3554.409160	0.095570	0.299554	1755.689819
3554.410054	0.095460	0.299554	1841.031250
3554.410945	0.095427	0.299554	1926.056885
3554.411906	0.095555	0.299554	2017.885620
3554.412801	0.095515	0.299554	2103.371582
3555.417542	1.317488	0.295413	573.107178
3555.418508	0.619735	0.295413	1171.771240
3555.419416	0.095947	0.295413	1258.891357
3555.420320	0.095490	0.295413	1345.213867
3555.421204	0.095449	0.295413	1429.590942
3555.422151	0.095566	0.295413	1520.092285
3555.423057	0.095347	0.295413	1606.476318
3555.423950	0.095490	0.295413	1691.748413
3555.424885	0.095479	0.295413	1781.020874
3555.425781	0.095475	0.295413	1866.566406
3555.426681	0.095449	0.295413	1952.470703
3555.427568	0.095409	0.295413	2037.098389
3556.420810	1.319290	0.300565	576.529541
3556.421703	0.744360	0.300565	1241.243408
3556.422655	0.096094	0.300565	1332.724609
3556.423563	0.095380	0.300565	1419.329346
3556.424487	0.095449	0.300565	1507.524414
3556.425375	0.095471	0.300565	1592.302856
3556.426322	0.095482	0.300565	1682.724487
3556.427217	0.095416	0.300565	1768.122070
3556.428103	0.095460	0.300565	1852.699829
3556.429036	0.095515	0.300565	1941.815430
3556.429944	0.095438	0.300565	2028.473389
3556.430864	0.095438	0.300565	2116.276611
3557.431793	1.381036	0.296178	649.087097
3557.432718	0.633563	0.296178	1235.133057
3557.433609	0.096152	0.296178	1320.804810
3557.434539	0.095482	0.296178	1409.603271
3557.435454	0.095533	0.296178	1497.016357
3557.436357	0.095468	0.296178	1583.223511
3557.437256	0.095504	0.296178	1669.081787
3557.438197	0.095537	0.296178	1758.982178
3557.439098	0.095475	0.296178	1845.005005
3557.439998	0.095475	0.296178	1930.932373
3557.440888	0.095482	0.296178	2015.911499
3557.441843	0.095533	0.296178	2107.145996
3558.439123	1.338988	0.299639	593.171631
3558.440031	0.709417	0.299639	1237.321777
3558.440916	0.096877	0.299639	1323.058350
3558.441869	0.095581	0.299639	1414.147095
3558.442788	0.095339	0.299639	1501.763916
3558.443681	0.095354	0.299639	1586.915039
3558.444604	0.095431	0.299639	1674.997803
3558.445508	0.095592	0.299639	1761.412964
3558.446409	0.095424	0.299639	1847.389648
3558.447304	0.095479	0.299639	1932.842896
3558.448253	0.095519	0.299639	2023.490234
3558.449152	0.095497	0.299639	2109.341797
3559.445983	1.348348	0.300488	612.150146
3559.446887	0.692677	0.300488	1238.330200
3559.447808	0.096266	0.300488	1326.991089
3559.448703	0.095537	0.300488	1412.496826
3559.449649	0.095552	0.300488	1502.888794
3559.450564	0.095552	0.300488	1590.318604
3559.451457	0.095453	0.300488	1675.557983
3559.452375	0.095515	0.300488	1763.240845
3559.453290	0.095508	0.300488	1850.630493
3559.454211	0.095464	0.300488	1938.552734
3559.455099	0.095508	0.300488	2023.363647
3559.456059	0.095460	0.300488	2115.005371
3560.457963	1.334546	0.299735	627.236633
3560.458911	0.582422	0.299735	1179.372559
3560.459813	0.095841	0.299735	1265.821167
3560.460701	0.095468	0.299735	1350.596313
3560.461640	0.095574	0.299735	1440.340088
3560.462548	0.095570	0.299735	1527.117676
3560.463445	0.095533	0.299735	1612.811157
3560.464334	0.095548	0.299735	1697.753418
3560.465291	0.095629	0.299735	1789.270020
3560.466187	0.095493	0.299735	1874.831909
3560.467077	0.095548	0.299735	1959.869751
3560.467998	0.095515	0.299735	2047.839233
3561.461466	1.340292	0.299941	595.089539
3561.462387	0.686107	0.299941	1226.994141
3561.463278	0.096343	0.299941	1312.835571
3561.464220	0.095500	0.299941	1402.796997
3561.465132	0.095658	0.299941	1490.037109
3561.466031	0.095471	0.299941	1575.865723
3561.466915	0.095435	0.299941	1660.229858
3561.467859	0.095570	0.299941	1750.447998
3561.468760	0.095548	0.299941	1836.536865
3561.469657	0.095497	0.299941	1922.197510
3561.470542	0.095504	0.299941	2006.718628
3561.471476	0.095592	0.299941	2096.001465
3562.476743	1.315536	0.301258	568.311523
3562.477687	0.668236	0.301258	1199.126465
3562.478594	0.096218	0.301258	1286.396484
3562.479493	0.095519	0.301258	1372.267822
3562.480386	0.095592	0.301258	1457.631470
3562.481346	0.095636	0.301258	1549.442017
3562.482247	0.095526	0.301258	1635.511108
3562.483142	0.095460	0.301258	1720.947998
3562.484066	0.095588	0.301258	1809.271606
3562.484973	0.095559	0.301258	1895.943726
3562.485877	0.095471	0.301258	1982.249634
3562.486766	0.095552	0.301258	2067.195068
3563.478995	1.339640	0.307159	600.158691
3563.479900	0.705062	0.307159	1238.239990
3563.480828	0.096636	0.307159	1327.917969
3563.481736	0.095490	0.307159	1414.622437
3563.482633	0.095533	0.307159	1500.315918
3563.483518	0.095482	0.307159	1584.817627
3563.484457	0.095544	0.307159	1674.533813
3563.485355	0.095497	0.307159	1760.289917
3563.486252	0.095497	0.307159	1845.950562
3563.487142	0.095504	0.307159	1930.949219
3563.488061	0.095610	0.307159	2018.815186
3563.488969	0.095449	0.307159	2105.483154
3564.494828	1.366717	0.300267	630.056763
3564.495742	0.671949	0.300267	1244.218506
3564.496666	0.096237	0.300267	1333.141113
3564.497574	0.095526	0.300267	1419.878784
3564.498494	0.095555	0.300267	1507.789795
3564.499383	0.095497	0.300267	1592.686523
3564.500274	0.095574	0.300267	1677.842773
3564.501206	0.095566	0.300267	1766.910645
3564.502122	0.095508	0.300267	1854.395752
3564.503019	0.095563	0.300267	1940.115479
3564.503908	0.095519	0.300267	2025.031738
3564.504857	0.095574	0.300267	2115.731201
3565.497560	1.341420	0.303848	590.224670
3565.498476	0.694398	0.303848	1226.293457
3565.499377	0.096486	0.303848	1313.226929
3565.500271	0.095490	0.303848	1398.594482
3565.501230	0.095647	0.303848	1490.319946
3565.502134	0.095438	0.303848	1576.596069
3565.503033	0.095570	0.303848	1662.513550
3565.503975	0.095621	0.303848	1752.588867
3565.504872	0.095581	0.303848	1838.325073
3565.505768	0.095537	0.303848	1923.926270
3565.506653	0.095526	0.303848	2008.466919
3565.507584	0.095603	0.303848	2097.473389
3566.511579	1.349410	0.289689	604.535889
3566.512489	0.690483	0.289689	1232.875732
3566.513375	0.096603	0.289689	1318.465820
3566.514333	0.095614	0.289689	1410.064087
3566.515241	0.095552	0.289689	1496.825073
3566.516134	0.095607	0.289689	1582.201904
3566.517077	0.095680	0.289689	1672.428101
3566.517975	0.095486	0.289689	1758.174438
3566.518874	0.095314	0.289689	1843.861450
3566.519765	0.095614	0.289689	1929.053589
3566.520695	0.095592	0.289689	2017.954224
3566.521604	0.095592	0.289689	2104.847412
3567.516634	1.348352	0.300110	613.500122
3567.517523	0.714104	0.300110	1248.338623
3567.518490	0.096621	0.300110	1341.771240
3567.519384	0.095464	0.300110	1427.115967
3567.520294	0.095559	0.300110	1514.074707
3567.521189	0.095457	0.300110	1599.508301
3567.522121	0.095504	0.300110	1688.518188
3567.523040	0.095486	0.300110	1776.269653
3567.523933	0.095544	0.300110	1861.590820
3567.524878	0.095610	0.300110	1951.942627
3567.525780	0.095519	0.300110	2038.100586
3567.526703	0.095519	0.300110	2126.264404
3568.526535	1.323607	0.289443	574.445557
3568.527517	0.610518	0.289443	1173.973877
3568.528430	0.095801	0.289443	1261.439941
3568.529329	0.095515	0.289443	1347.308105
3568.530219	0.095526	0.289443	1432.326416
3568.531180	0.095566	0.289443	1524.165771
3568.532080	0.095435	0.289443	1610.056885
3568.532971	0.095552	0.289443	1695.193481
3568.533894	0.095522	0.289443	1783.360718
3568.534802	0.095555	0.289443	1870.125000
3568.535700	0.095482	0.289443	1955.868042
3568.536585	0.095515	0.289443	2040.398926
3569.534947	1.347283	0.296327	615.708191
3569.535843	0.698386	0.296327	1241.462158
3569.536782	0.096669	0.296327	1332.234131
3569.537684	0.095603	0.296327	1418.468018
3569.538583	0.095468	0.296327	1504.293335
3569.539472	0.095490	0.296327	1589.183472
3569.540408	0.095555	0.296327	1678.623291
3569.541301	0.095625	0.296327	1764.016357
3569.542204	0.095541	0.296327	1850.289673
3569.543090	0.095552	0.296327	1934.948486
3569.544032	0.095632	0.296327	2025.034180
3569.544941	0.095566	0.296327	2111.904053
3570.540757	1.336128	0.291952	593.240845
3570.541689	0.667551	0.291952	1215.398682
3570.542585	0.096372	0.291952	1301.748047
3570.543510	0.095588	0.291952	1390.167236
3570.544414	0.095552	0.291952	1476.546021
3570.545312	0.095599	0.291952	1562.394287
3570.546199	0.095559	0.291952	1647.155151
3570.547153	0.095632	0.291952	1738.388428
3570.548053	0.095486	0.291952	1824.325684
3570.548947	0.095610	0.291952	1909.801392
3570.549865	0.095592	0.291952	1997.554932
3570.550794	0.095526	0.291952	2086.298584
3571.552456	1.321996	0.295530	577.712158
3571.553433	0.638650	0.295530	1201.673096
3571.554331	0.095874	0.295530	1287.767944
3571.555229	0.095424	0.295530	1373.458374
3571.556119	0.095475	0.295530	1458.431030
3571.557065	0.095490	0.295530	1548.764160
3571.557973	0.095566	0.295530	1635.538452
3571.558872	0.095460	0.295530	1721.357178
3571.559799	0.095508	0.295530	1809.892944
3571.560697	0.095640	0.295530	1895.777344
3571.561604	0.095394	0.295530	1982.299927
3571.562494	0.095471	0.295530	2067.269287
3572.554980	1.335267	0.299635	603.540894
3572.555884	0.700474	0.299635	1236.769043
3572.556771	0.096643	0.299635	1322.491455
3572.557732	0.095508	0.299635	1414.274414
3572.558623	0.095427	0.299635	1499.300049
3572.559538	0.095559	0.299635	1586.736572
3572.560433	0.095493	0.299635	1672.203003
3572.561397	0.095526	0.299635	1764.290161
3572.562292	0.095497	0.299635	1849.759766
3572.563177	0.095471	0.299635	1934.251709
3572.564105	0.095500	0.299635	2022.876221
3572.565022	0.095449	0.299635	2110.403076
3573.570518	1.342353	0.294228	601.374329
3573.571443	0.679786	0.294228	1230.176758
3573.572334	0.096445	0.294228	1316.109497
3573.573277	0.095544	0.294228	1406.207886
3573.574174	0.095559	0.294228	1491.924438
3573.575069	0.095424	0.294228	1577.328491
3573.575951	0.095479	0.294228	1661.540527
3573.576886	0.095592	0.294228	1750.919067
3573.577793	0.095449	0.294228	1837.491455
3573.578691	0.095519	0.294228	1923.267334
3573.579619	0.095555	0.294228	2011.942749
3573.580531	0.095559	0.294228	2099.092529
3574.570195	1.334095	0.293141	584.333801
3574.571128	0.679310	0.293141	1218.130249
3574.572026	0.096317	0.293141	1304.623047
3574.572957	0.095519	0.293141	1393.551025
3574.573858	0.095574	0.293141	1479.662964
3574.574763	0.095460	0.293141	1566.054443
3574.575651	0.095526	0.293141	1650.881592
3574.576598	0.095541	0.293141	1741.358643
3574.577499	0.095651	0.293141	1827.539917
3574.578399	0.095544	0.293141	1913.529907
3574.579284	0.095500	0.293141	1998.047852
3574.580214	0.095515	0.293141	2086.876953
3575.587806	1.344620	0.297012	607.768372
3575.588700	0.713884	0.297012	1245.980957
3575.589638	0.096577	0.297012	1336.570312
3575.590552	0.095416	0.297012	1423.780762
3575.591452	0.095522	0.297012	1509.750977
3575.592339	0.095479	0.297012	1594.440430
3575.593285	0.095574	0.297012	1684.853149
3575.594188	0.095511	0.297012	1771.099976
3575.595084	0.095493	0.297012	1856.661865
3575.595993	0.095453	0.297012	1943.428589
3575.596913	0.095526	0.297012	2031.312622
3575.597818	0.095460	0.297012	2117.704102
3576.586697	1.333191	0.296480	582.604431
3576.587668	0.612144	0.296480	1176.995850
3576.588574	0.095797	0.296480	1263.788086
3576.589464	0.095398	0.296480	1348.692261
3576.590406	0.095511	0.296480	1438.664062
3576.591325	0.095457	0.296480	1526.388672
3576.592217	0.095416	0.296480	1611.500000
3576.593140	0.095508	0.296480	1699.653687
3576.594042	0.095420	0.296480	1785.722412
3576.594942	0.095453	0.296480	1871.630005
3576.595824	0.095380	0.296480	1955.754883
3576.596760	0.095537	0.296480	2045.177612
3577.605062	1.320385	0.295711	573.046875
3577.605999	0.698328	0.295711	1227.379883
3577.606914	0.096207	0.295711	1315.409546
3577.607814	0.095533	0.295711	1401.389648
3577.608703	0.095522	0.295711	1486.309082
3577.609637	0.095574	0.295711	1575.574951
3577.610539	0.095647	0.295711	1661.848511
3577.611439	0.095559	0.295711	1747.851685
3577.612326	0.095511	0.295711	1832.570312
3577.613255	0.095684	0.295711	1921.460327
3577.614168	0.095544	0.295711	2008.692383
3577.615064	0.095566	0.295711	2094.319824
3578.603216	1.335352	0.300207	590.225403
3578.604148	0.680453	0.300207	1224.407471
3578.605044	0.096383	0.300207	1310.766724
3578.605977	0.095599	0.300207	1399.960937
3578.606890	0.095592	0.300207	1487.236450
3578.607796	0.095544	0.300207	1573.799683
3578.608685	0.095511	0.300207	1658.709351
3578.609633	0.095607	0.300207	1749.344482
3578.610535	0.095651	0.300207	1835.621338
3578.611429	0.095515	0.300207	1921.011841
3578.612325	0.095526	0.300207	2006.603271
3578.613268	0.095603	0.300207	2096.756836
3579.620835	1.347850	0.296835	614.619751
3579.621744	0.680365	0.296835	1233.071533
3579.622632	0.096427	0.296835	1318.698730
3579.623583	0.095500	0.296835	1409.519653
3579.624481	0.095533	0.296835	1495.308716
3579.625401	0.095475	0.296835	1583.145630
3579.626292	0.095460	0.296835	1668.200684
3579.627252	0.095541	0.296835	1759.919800
3579.628154	0.095413	0.296835	1845.981934
3579.629043	0.095522	0.296835	1930.901367
3579.629990	0.095585	0.296835	2021.420044
3579.630911	0.095570	0.296835	2109.440186
3580.619752	1.374584	0.303747	643.305237
3580.620680	0.627924	0.303747	1226.018311
3580.621575	0.095962	0.303747	1311.904175
3580.622511	0.095387	0.303747	1401.186401
3580.623416	0.095490	0.303747	1487.604370
3580.624313	0.095416	0.303747	1573.192749
3580.625199	0.095427	0.303747	1657.741333
3580.626150	0.095610	0.303747	1748.666748
3580.627048	0.095446	0.303747	1834.376831
3580.627934	0.095420	0.303747	1918.918945
3580.628853	0.095490	0.303747	2006.673828
3580.629777	0.095541	0.303747	2094.953613
3581.637588	1.329214	0.293105	586.183289
3581.638482	0.726145	0.293105	1235.356934
3581.639432	0.096251	0.293105	1326.795654
3581.640335	0.095526	0.293105	1413.055786
3581.641228	0.095592	0.293105	1498.419434
3581.642155	0.095468	0.293105	1586.917847
3581.643072	0.095592	0.293105	1674.575684
3581.643976	0.095493	0.293105	1760.901489
3581.644870	0.095548	0.293105	1846.321533
3581.645809	0.095585	0.293105	1936.075562
3581.646709	0.095497	0.293105	2022.022705
3581.647604	0.095464	0.293105	2107.462891
3582.636807	1.360609	0.302563	680.304504
3582.637728	0.603018	0.302563	1235.683594
3582.638623	0.095914	0.302563	1321.526855
3582.639546	0.095493	0.302563	1409.666992
3582.640475	0.095416	0.302563	1498.308716
3582.641377	0.095490	0.302563	1584.440186
3582.642264	0.095431	0.302563	1669.087402
3582.643197	0.095640	0.302563	1758.319214
3582.644109	0.095427	0.302563	1845.348877
3582.645022	0.095581	0.302563	1932.614380
3582.645907	0.095471	0.302563	2017.106445
3582.646851	0.095500	0.302563	2107.258789
3583.654597	1.321890	0.293395	575.021973
3583.655552	0.646058	0.293395	1192.007690
3583.656463	0.096123	0.293395	1279.575806
3583.657365	0.095479	0.293395	1365.697388
3583.658252	0.095453	0.293395	1450.364136
3583.659205	0.095577	0.293395	1541.449341
3583.660108	0.095533	0.293395	1627.716064
3583.660996	0.095493	0.293395	1712.514038
3583.661929	0.095636	0.293395	1801.742432
3583.662843	0.095541	0.293395	1889.066650
3583.663753	0.095500	0.293395	1975.972046
3583.664651	0.095475	0.293395	2061.708496
3584.653273	1.342020	0.296331	607.935181
3584.654173	0.706183	0.296331	1243.499756
3584.655085	0.096661	0.296331	1331.654907
3584.656010	0.095515	0.296331	1420.006348
3584.656924	0.095482	0.296331	1507.277100
3584.657822	0.095354	0.296331	1592.905029
3584.658754	0.095515	0.296331	1681.925171
3584.659658	0.095479	0.296331	1768.237793
3584.660569	0.095479	0.296331	1855.218750
3584.661456	0.095519	0.296331	1939.943970
3584.662412	0.095588	0.296331	2031.326416
3584.663320	0.095490	0.296331	2118.030762
3585.671374	1.328657	0.296670	580.623230
3585.672332	0.622947	0.296670	1177.406250
3585.673250	0.095944	0.296670	1265.482422
3585.674153	0.095468	0.296670	1351.689575
3585.675087	0.095541	0.296670	1440.924683
3585.675998	0.095570	0.296670	1527.989014
3585.676900	0.095438	0.296670	1614.074341
3585.677797	0.095479	0.296670	1699.718506
3585.678740	0.095522	0.296670	1789.796143
3585.679640	0.095471	0.296670	1875.720215
3585.680536	0.095482	0.296670	1961.272217
3585.681420	0.095493	0.296670	2045.688232
3586.669529	1.345342	0.299357	597.331787
3586.670447	0.683130	0.299357	1224.445068
3586.671335	0.096511	0.299357	1310.147095
3586.672279	0.095548	0.299357	1400.344482
3586.673197	0.095574	0.299357	1488.081177
3586.674100	0.095541	0.299357	1574.354492
3586.674991	0.095603	0.299357	1659.536743
3586.675936	0.095581	0.299357	1749.860840
3586.676823	0.095511	0.299357	1834.579468
3586.677743	0.095533	0.299357	1922.470215
3586.678634	0.095555	0.299357	2007.610107
3586.679571	0.095563	0.299357	2097.152344
3587.687883	1.321718	0.299618	577.590576
3587.688831	0.644637	0.299618	1188.706909
3587.689749	0.096152	0.299618	1276.974731
3587.690647	0.095479	0.299618	1362.714478
3587.691576	0.095603	0.299618	1451.529663
3587.692485	0.095607	0.299618	1538.436157
3587.693391	0.095526	0.299618	1624.982788
3587.694284	0.095511	0.299618	1710.274536
3587.695226	0.095607	0.299618	1800.336060
3587.696129	0.095585	0.299618	1886.649048
3587.697026	0.095548	0.299618	1972.355713
3587.697910	0.095460	0.299618	2056.742432
3588.685770	1.327650	0.301262	582.838379
3588.686679	0.720776	0.301262	1238.024170
3588.687568	0.096841	0.301262	1324.115723
3588.688538	0.095490	0.301262	1416.740479
3588.689430	0.095574	0.301262	1501.992187
3588.690328	0.095519	0.301262	1587.768066
3588.691214	0.095515	0.301262	1672.394531
3588.692152	0.095555	0.301262	1762.025513
3588.693063	0.095504	0.301262	1849.029785
3588.693959	0.095526	0.301262	1934.621216
3588.694896	0.095515	0.301262	2024.118896
3588.695799	0.095585	0.301262	2110.431885
3589.704386	1.317305	0.305697	570.392944
3589.705347	0.645498	0.305697	1190.716553
3589.706268	0.095995	0.305697	1279.127808
3589.707171	0.095497	0.305697	1365.361450
3589.708059	0.095511	0.305697	1450.175659
3589.709010	0.095581	0.305697	1541.073242
3589.709914	0.095482	0.305697	1627.389160
3589.710803	0.095497	0.305697	1712.285889
3589.711723	0.095519	0.305697	1800.163208
3589.712637	0.095548	0.305697	1887.494141
3589.713531	0.095453	0.305697	1972.828979
3589.714420	0.095581	0.305697	2057.800537
3590.701322	1.361188	0.302297	684.677429
3590.702251	0.554421	0.302297	1199.734863
3590.703151	0.095797	0.302297	1285.952271
3590.704038	0.095490	0.302297	1370.651489
3590.704988	0.095596	0.302297	1461.467407
3590.705888	0.095453	0.302297	1547.375000
3590.706783	0.095559	0.302297	1632.900391
3590.707667	0.095482	0.302297	1717.306641
3590.708596	0.095614	0.302297	1806.132080
3590.709506	0.095541	0.302297	1893.074219
3590.710399	0.095522	0.302297	1978.375732
3590.711331	0.095640	0.302297	2067.511963
3591.719136	1.354874	0.307389	616.467773
3591.720045	0.686704	0.307389	1240.681885
3591.720927	0.096599	0.307389	1325.882324
3591.721867	0.095603	0.307389	1415.749146
3591.722776	0.095460	0.307389	1502.522461
3591.723674	0.095563	0.307389	1588.337769
3591.724605	0.095552	0.307389	1677.296509
3591.725508	0.095537	0.307389	1763.566528
3591.726411	0.095526	0.307389	1849.826660
3591.727302	0.095519	0.307389	1934.933960
3591.728237	0.095522	0.307389	2024.247437
3591.729133	0.095559	0.307389	2109.868408
3592.718304	1.349879	0.303212	610.145386
3592.719219	0.687338	0.303212	1239.059326
3592.720107	0.096544	0.303212	1324.790527
3592.721033	0.095563	0.303212	1413.281616
3592.721944	0.095687	0.303212	1500.452759
3592.722859	0.095607	0.303212	1587.932861
3592.723759	0.095577	0.303212	1673.952515
3592.724694	0.095618	0.303212	1763.354980
3592.725590	0.095665	0.303212	1849.071045
3592.726486	0.095662	0.303212	1934.783813
3592.727370	0.095588	0.303212	2019.283936
3592.728318	0.095676	0.303212	2109.985107
3593.733842	1.325090	0.307655	587.015076
3593.734739	0.727566	0.307655	1239.641724
3593.735706	0.096178	0.307655	1332.645874
3593.736603	0.095394	0.307655	1418.214600
3593.737486	0.095508	0.307655	1502.547974
3593.738403	0.095522	0.307655	1590.142090
3593.739338	0.095468	0.307655	1679.404175
3593.740242	0.095464	0.307655	1765.703491
3593.741135	0.095460	0.307655	1850.949463
3593.742065	0.095486	0.307655	1939.751343
3593.742978	0.095482	0.307655	2026.926514
3593.743892	0.095431	0.307655	2114.150391
3594.735565	1.334396	0.298752	585.799744
3594.736467	0.724321	0.298752	1239.137573
3594.737363	0.096903	0.298752	1325.962769
3594.738322	0.095522	0.298752	1417.568848
3594.739230	0.095449	0.298752	1504.236694
3594.740125	0.095413	0.298752	1589.630981
3594.741058	0.095508	0.298752	1678.739746
3594.741959	0.095479	0.298752	1764.765869
3594.742855	0.095442	0.298752	1850.281860
3594.743738	0.095420	0.298752	1934.537598
3594.744675	0.095581	0.298752	2024.097046
3594.745578	0.095537	0.298752	2110.366943
3595.748061	1.338113	0.310487	598.136414
3595.748988	0.687334	0.310487	1235.295044
3595.749876	0.096346	0.310487	1320.850708
3595.750818	0.095471	0.310487	1410.784546
3595.751720	0.095533	0.310487	1496.955688
3595.752621	0.095497	0.310487	1582.998291
3595.753513	0.095490	0.310487	1668.174927
3595.754476	0.095581	0.310487	1760.219482
3595.755374	0.095581	0.310487	1846.051270
3595.756275	0.095548	0.310487	1932.140137
3595.757159	0.095566	0.310487	2016.620850
3595.758096	0.095541	0.310487	2106.142578
3596.754415	1.372789	0.298591	638.346985
3596.755333	0.646637	0.298591	1231.959717
3596.756233	0.096160	0.298591	1318.503418
3596.757118	0.095460	0.298591	1402.985718
3596.758064	0.095607	0.298591	1493.429687
3596.758969	0.095479	0.298591	1579.837769
3596.759865	0.095530	0.298591	1665.432495
3596.760792	0.095566	0.298591	1754.022583
3596.761703	0.095570	0.298591	1841.086914
3596.762601	0.095526	0.298591	1926.869385
3596.763488	0.095508	0.298591	2011.584839
3596.764444	0.095610	0.298591	2102.988281
3597.762790	1.367095	0.301745	634.331970
3597.763685	0.688905	0.301745	1250.901855
3597.764642	0.096321	0.301745	1343.080811
3597.765551	0.095511	0.301745	1429.900757
3597.766444	0.095519	0.301745	1515.199097
3597.767337	0.095574	0.301745	1600.546387
3597.768274	0.095632	0.301745	1690.153931
3597.769176	0.095475	0.301745	1776.272217
3597.770072	0.095460	0.301745	1861.804565
3597.771011	0.095544	0.301745	1951.520752
3597.771913	0.095490	0.301745	2037.652344
3597.772820	0.095526	0.301745	2124.294434
3598.774247	1.376330	0.293383	642.746338
3598.775157	0.655217	0.293383	1238.994141
3598.776059	0.096244	0.293383	1325.806152
3598.776950	0.095544	0.293383	1410.936279
3598.777893	0.095508	0.293383	1501.000122
3598.778801	0.095475	0.293383	1587.691284
3598.779692	0.095559	0.293383	1672.834473
3598.780622	0.095548	0.293383	1761.694214
3598.781527	0.095643	0.293383	1848.251465
3598.782425	0.095504	0.293383	1934.014160
3598.783313	0.095457	0.293383	2018.779541
3598.784257	0.095588	0.293383	2109.014893
3599.778515	1.338245	0.292738	598.195312
3599.779415	0.719114	0.292738	1245.397705
3599.780349	0.096790	0.292738	1335.799194
3599.781253	0.095442	0.292738	1422.078613
3599.782163	0.095413	0.292738	1508.904053
3599.783052	0.095500	0.292738	1593.803955
3599.783973	0.095592	0.292738	1681.844238
3599.784878	0.095522	0.292738	1768.292114
3599.785783	0.095493	0.292738	1854.713379
3599.786669	0.095493	0.292738	1939.320312
3599.787616	0.095574	0.292738	2029.828613
3599.788525	0.095453	0.292738	2116.595215
3600.794318	1.328914	0.286430	588.708740
3600.795296	0.585945	0.286430	1161.762695
3600.796202	0.095801	0.286430	1248.558228
3600.797129	0.095526	0.286430	1337.110962
3600.798018	0.095541	0.286430	1422.046753
3600.798972	0.095537	0.286430	1513.189209
3600.799894	0.095519	0.286430	1601.257568
3600.800781	0.095471	0.286430	1685.940552
3600.801713	0.095500	0.286430	1774.947021
3600.802622	0.095457	0.286430	1861.717041
3600.803536	0.095555	0.286430	1949.054687
3600.804420	0.095566	0.286430	2033.535400
3601.796048	1.331517	0.289612	588.530640
3601.796940	0.727522	0.289612	1237.480225
3601.797889	0.096215	0.289612	1328.787842
3601.798790	0.095453	0.289612	1414.790894
3601.799681	0.095544	0.289612	1499.921021
3601.800612	0.095522	0.289612	1588.852417
3601.801522	0.095559	0.289612	1675.811157
3601.802424	0.095471	0.289612	1761.926147
3601.803315	0.095577	0.289612	1847.085571
3601.804255	0.095581	0.289612	1936.931763
3601.805164	0.095453	0.289612	2023.698486
3601.806069	0.095460	0.289612	2110.090088
3602.813136	1.346550	0.282562	601.908020
3602.814120	0.579521	0.282562	1172.157227
3602.815019	0.095863	0.282562	1258.338135
3602.815915	0.095479	0.282562	1343.886841
3602.816840	0.095541	0.282562	1432.262085
3602.817746	0.095581	0.282562	1518.858521
3602.818645	0.095457	0.282562	1604.673950
3602.819532	0.095530	0.282562	1689.408936
3602.820478	0.095519	0.282562	1779.769775
3602.821375	0.095555	0.282562	1865.483032
3602.822274	0.095577	0.282562	1951.407104
3602.823161	0.095563	0.282562	2036.171265
3603.814868	1.333715	0.285689	593.502991
3603.815773	0.716060	0.285689	1241.536865
3603.816710	0.096764	0.285689	1332.204712
3603.817614	0.095544	0.285689	1418.576904
3603.818511	0.095479	0.285689	1504.221191
3603.819400	0.095508	0.285689	1589.127686
3603.820340	0.095555	0.285689	1678.949829
3603.821248	0.095533	0.285689	1765.694214
3603.822147	0.095479	0.285689	1851.529419
3603.823035	0.095544	0.285689	1936.372925
3603.823996	0.095585	0.285689	2028.229858
3603.824903	0.095493	0.285689	2114.842041
3604.830155	1.330408	0.282397	586.709839
3604.831135	0.580199	0.282397	1155.304932
3604.832045	0.095760	0.282397	1242.447021
3604.832975	0.095387	0.282397	1331.156860
3604.833861	0.095490	0.282397	1415.760498
3604.834814	0.095464	0.282397	1506.737549
3604.835715	0.095464	0.282397	1592.750488
3604.836602	0.095464	0.282397	1677.427002
3604.837538	0.095640	0.282397	1766.945679
3604.838446	0.095508	0.282397	1853.666748
3604.839363	0.095544	0.282397	1941.281006
3604.840261	0.095497	0.282397	2027.037109
3605.833704	1.373130	0.288456	635.759094
3605.834632	0.632952	0.288456	1223.138184
3605.835530	0.096061	0.288456	1309.400757
3605.836455	0.095526	0.288456	1397.762451
3605.837355	0.095603	0.288456	1483.805176
3605.838256	0.095438	0.288456	1569.795044
3605.839144	0.095424	0.288456	1654.531128
3605.840091	0.095596	0.288456	1745.060303
3605.840995	0.095596	0.288456	1831.478760
3605.841886	0.095490	0.288456	1916.559937
3605.842774	0.095475	0.288456	2001.341553
3605.843713	0.095610	0.288456	2091.119629
3606.847961	1.347286	0.284754	611.668030
3606.848857	0.707585	0.284754	1245.664551
3606.849808	0.096610	0.284754	1337.540771
3606.850717	0.095544	0.284754	1424.390625
3606.851619	0.095522	0.284754	1510.551880
3606.852512	0.095464	0.284754	1595.801147
3606.853452	0.095482	0.284754	1685.554443
3606.854346	0.095526	0.284754	1770.954834
3606.855242	0.095435	0.284754	1856.464233
3606.856132	0.095453	0.284754	1941.417236
3606.857079	0.095566	0.284754	2031.918579
3606.857987	0.095497	0.284754	2118.629639
3607.852492	1.333660	0.280299	586.810242
3607.853460	0.602908	0.280299	1170.424927
3607.854374	0.095958	0.280299	1258.130737
3607.855273	0.095493	0.280299	1343.979126
3607.856203	0.095500	0.280299	1432.794556
3607.857115	0.095530	0.280299	1519.917725
3607.858016	0.095405	0.280299	1605.877930
3607.858905	0.095500	0.280299	1690.777832
3607.859844	0.095530	0.280299	1780.480347
3607.860746	0.095544	0.280299	1866.661377
3607.861640	0.095442	0.280299	1951.986450
3607.862527	0.095497	0.280299	2036.692139
3608.862663	1.317777	0.290345	575.868591
3608.863622	0.632227	0.290345	1182.173828
3608.864531	0.095988	0.290345	1269.426514
3608.865436	0.095398	0.290345	1355.761719
3608.866321	0.095446	0.290345	1440.231079
3608.867273	0.095460	0.290345	1531.109131
3608.868177	0.095394	0.290345	1617.345581
3608.869064	0.095446	0.290345	1702.005737
3608.870011	0.095460	0.290345	1792.406494
3608.870910	0.095457	0.290345	1878.221924
3608.871811	0.095468	0.290345	1964.238159
3608.872702	0.095460	0.290345	2049.293213
3609.870800	1.332682	0.287131	591.710693
3609.871705	0.708380	0.287131	1232.794678
3609.872641	0.096643	0.287131	1323.252563
3609.873555	0.095453	0.287131	1410.496460
3609.874465	0.095431	0.287131	1497.338623
3609.875354	0.095460	0.287131	1582.202759
3609.876282	0.095500	0.287131	1670.827148
3609.877177	0.095493	0.287131	1756.293579
3609.878079	0.095416	0.287131	1842.359009
3609.878967	0.095435	0.287131	1927.104858
3609.879923	0.095446	0.287131	2018.350830
3609.880832	0.095475	0.287131	2105.137451
3610.878156	1.323820	0.294736	577.185364
3610.879057	0.718696	0.294736	1224.730713
3610.880022	0.096086	0.294736	1317.454102
3610.880928	0.095398	0.294736	1403.884644
3610.881825	0.095493	0.294736	1489.541992
3610.882766	0.095544	0.294736	1579.449341
3610.883667	0.095497	0.294736	1665.491943
3610.884568	0.095446	0.294736	1751.488403
3610.885454	0.095541	0.294736	1836.137573
3610.886395	0.095566	0.294736	1926.065552
3610.887301	0.095482	0.294736	2012.572388
3610.888202	0.095431	0.294736	2098.555664
3611.889113	1.340973	0.284540	603.437805
3611.890009	0.711947	0.284540	1241.342285
3611.890977	0.095819	0.284540	1334.095215
3611.891881	0.095354	0.284540	1420.295166
3611.892801	0.095541	0.284540	1508.192627
3611.893687	0.095438	0.284540	1592.750854
3611.894630	0.095530	0.284540	1682.835449
3611.895551	0.095442	0.284540	1770.737427
3611.896443	0.095500	0.284540	1855.923828
3611.897378	0.095493	0.284540	1945.209961
3611.898293	0.095460	0.284540	2032.556030
3611.899211	0.095475	0.284540	2120.201904
3612.892959	1.384940	0.300597	724.323669
3612.893876	0.539385	0.300597	1218.939453
3612.894774	0.095640	0.300597	1304.823853
3612.895663	0.095577	0.300597	1389.792114
3612.896600	0.095577	0.300597	1479.348145
3612.897506	0.095475	0.300597	1565.848389
3612.898407	0.095566	0.300597	1651.953735
3612.899294	0.095530	0.300597	1736.688721
3612.900231	0.095618	0.300597	1826.282471
3612.901129	0.095449	0.300597	1911.995850
3612.902016	0.095468	0.300597	1996.675537
3612.902945	0.095490	0.300597	2085.385254
3613.906675	1.385120	0.287542	651.006165
3613.907594	0.639163	0.287542	1238.396606
3613.908484	0.096163	0.287542	1323.981934
3613.909444	0.095574	0.287542	1415.732666
3613.910342	0.095548	0.287542	1501.534912
3613.911235	0.095475	0.287542	1586.793945
3613.912150	0.095508	0.287542	1674.183594
3613.913085	0.095544	0.287542	1763.517578
3613.913990	0.095486	0.287542	1849.932251
3613.914888	0.095486	0.287542	1935.678589
3613.915824	0.095570	0.287542	2025.132202
3613.916727	0.095559	0.287542	2111.422119
3614.909407	1.348861	0.297874	604.289795
3614.910326	0.677065	0.297874	1226.512939
3614.911229	0.096174	0.297874	1313.358398
3614.912157	0.095387	0.297874	1401.877441
3614.913068	0.095515	0.297874	1488.891724
3614.913976	0.095409	0.297874	1575.523071
3614.914874	0.095471	0.297874	1661.256226
3614.915810	0.095581	0.297874	1750.720093
3614.916709	0.095541	0.297874	1836.611206
3614.917608	0.095453	0.297874	1922.423340
3614.918494	0.095522	0.297874	2007.056274
3614.919438	0.095566	0.297874	2097.270996
3615.923930	1.338999	0.292565	602.549561
3615.924821	0.715734	0.292565	1240.268311
3615.925769	0.096160	0.292565	1331.427734
3615.926680	0.095533	0.292565	1418.458740
3615.927579	0.095515	0.292565	1504.326904
3615.928468	0.095402	0.292565	1589.138916
3615.929423	0.095493	0.292565	1680.334839
3615.930325	0.095453	0.292565	1766.433350
3615.931226	0.095453	0.292565	1852.436401
3615.932167	0.095537	0.292565	1942.336792
3615.933066	0.095555	0.292565	2028.241089
3615.933965	0.095442	0.292565	2114.043457
3616.924360	1.320824	0.299772	575.879272
3616.925314	0.703451	0.299772	1246.971436
3616.926222	0.096226	0.299772	1334.344238
3616.927129	0.095460	0.299772	1420.926636
3616.928016	0.095548	0.299772	1505.677734
3616.928950	0.095555	0.299772	1594.926514
3616.929853	0.095581	0.299772	1681.236206
3616.930755	0.095464	0.299772	1767.344604
3616.931682	0.095541	0.299772	1855.910889
3616.932570	0.095515	0.299772	1940.728271
3616.933499	0.095515	0.299772	2029.461792
3616.934403	0.095475	0.299772	2115.770996
3617.940941	1.324208	0.289942	582.651428
3617.941836	0.731459	0.289942	1237.307007
3617.942795	0.096182	0.289942	1329.545166
3617.943705	0.095427	0.289942	1416.383911
3617.944605	0.095537	0.289942	1502.367310
3617.945493	0.095548	0.289942	1587.213989
3617.946423	0.095585	0.289942	1676.107788
3617.947331	0.095596	0.289942	1762.908691
3617.948220	0.095563	0.289942	1847.864014
3617.949146	0.095603	0.289942	1936.392456
3617.950053	0.095526	0.289942	2023.034668
3617.950958	0.095537	0.289942	2109.495850
3618.941132	1.325695	0.297387	579.328552
3618.942105	0.610880	0.297387	1173.714844
3618.943010	0.096039	0.297387	1260.630005
3618.943912	0.095515	0.297387	1346.784668
3618.944797	0.095486	0.297387	1431.289673
3618.945744	0.095636	0.297387	1521.856934
3618.946648	0.095431	0.297387	1608.126465
3618.947545	0.095497	0.297387	1693.787109
3618.948470	0.095497	0.297387	1782.121704
3618.949378	0.095614	0.297387	1868.939209
3618.950277	0.095449	0.297387	1954.748047
3618.951166	0.095449	0.297387	2039.602417
3619.957203	1.331770	0.288541	589.974060
3619.958096	0.713229	0.288541	1226.887329
3619.959051	0.096127	0.288541	1318.688354
3619.959961	0.095541	0.288541	1405.630493
3619.960857	0.095625	0.288541	1491.310547
3619.961793	0.095676	0.288541	1580.863525
3619.962701	0.095607	0.288541	1667.674438
3619.963603	0.095643	0.288541	1753.944702
3619.964492	0.095537	0.288541	1838.877197
3619.965429	0.095588	0.288541	1928.443481
3619.966332	0.095555	0.288541	2014.729980
3619.967232	0.095533	0.288541	2100.709961
3620.957644	1.321688	0.297109	580.221191
3620.958620	0.605248	0.297109	1170.943115
3620.959520	0.095962	0.297109	1257.308838
3620.960417	0.095548	0.297109	1343.015503
3620.961301	0.095537	0.297109	1427.470337
3620.962237	0.095548	0.297109	1516.903320
3620.963144	0.095468	0.297109	1603.492432
3620.964043	0.095497	0.297109	1689.344116
3620.964976	0.095603	0.297109	1778.541748
3620.965886	0.095607	0.297109	1865.543823
3620.966789	0.095537	0.297109	1951.813843
3620.967677	0.095482	0.297109	2036.602051
3621.973982	1.343698	0.289693	603.320190
3621.974874	0.712965	0.289693	1239.285034
3621.975838	0.096083	0.289693	1331.908813
3621.976736	0.095490	0.289693	1417.658447
3621.977623	0.095457	0.289693	1502.328369
3621.978557	0.095537	0.289693	1591.560059
3621.979469	0.095566	0.289693	1678.716553
3621.980372	0.095453	0.289693	1764.910522
3621.981258	0.095566	0.289693	1849.582397
3621.982183	0.095618	0.289693	1938.028809
3621.983102	0.095526	0.289693	2025.817261
3621.984009	0.095504	0.289693	2112.439453
3622.974989	1.401716	0.295264	709.268433
3622.975908	0.575314	0.295264	1237.981689
3622.976803	0.095808	0.295264	1323.729980
3622.977693	0.095416	0.295264	1408.650391
3622.978633	0.095471	0.295264	1498.393311
3622.979542	0.095486	0.295264	1585.189941
3622.980438	0.095570	0.295264	1670.820679
3622.981361	0.095574	0.295264	1759.035278
3622.982266	0.095640	0.295264	1845.589111
3622.983174	0.095566	0.295264	1932.363403
3622.984065	0.095515	0.295264	2017.467407
3622.985007	0.095669	0.295264	2107.587646
3623.989718	1.340936	0.292871	602.080383
3623.990618	0.710160	0.292871	1241.224365
3623.991575	0.096368	0.292871	1333.448975
3623.992478	0.095541	0.292871	1419.722290
3623.993373	0.095566	0.292871	1505.254272
3623.994259	0.095486	0.292871	1589.854736
3623.995197	0.095618	0.292871	1679.544067
3623.996102	0.095559	0.292871	1766.025024
3623.997001	0.095632	0.292871	1851.998535
3623.997924	0.095607	0.292871	1940.243530
3623.998829	0.095640	0.292871	2026.797363
3623.999736	0.095559	0.292871	2113.469482
3624.992265	1.394861	0.297238	703.009888
3624.993185	0.573669	0.297238	1230.785767
3624.994106	0.095691	0.297238	1318.917114
3624.995002	0.095490	0.297238	1404.475708
3624.995957	0.095511	0.297238	1495.689209
3624.996856	0.095566	0.297238	1581.603394
3624.997747	0.095625	0.297238	1666.805298
3624.998670	0.095563	0.297238	1755.009766
3624.999592	0.095511	0.297238	1843.071289
3625.000483	0.095526	0.297238	1928.185059
3625.001374	0.095614	0.297238	2013.377197
3625.002306	0.095618	0.297238	2102.492920
3626.005453	1.330345	0.292001	588.012634
3626.006355	0.724849	0.292001	1241.826172
3626.007239	0.096888	0.292001	1327.475586
3626.008195	0.095552	0.292001	1418.823120
3626.009091	0.095541	0.292001	1504.427612
3626.009991	0.095555	0.292001	1590.427490
3626.010881	0.095566	0.292001	1675.481567
3626.011811	0.095621	0.292001	1764.409424
3626.012725	0.095500	0.292001	1851.696899
3626.013626	0.095541	0.292001	1937.779175
3626.014560	0.095643	0.292001	2027.109985
3626.015465	0.095588	0.292001	2113.617432
3627.008977	1.331638	0.294079	587.252441
3627.009885	0.717239	0.294079	1238.505249
3627.010770	0.096866	0.294079	1324.232056
3627.011732	0.095585	0.294079	1416.184570
3627.012637	0.095468	0.294079	1502.582642
3627.013531	0.095526	0.294079	1587.983032
3627.014470	0.095643	0.294079	1677.792114
3627.015378	0.095629	0.294079	1764.622925
3627.016275	0.095577	0.294079	1850.355835
3627.017167	0.095475	0.294079	1935.519409
3627.018102	0.095555	0.294079	2024.863770
3627.019002	0.095544	0.294079	2110.853760
3628.021732	1.360851	0.291554	621.908875
3628.022653	0.663706	0.291554	1233.182129
3628.023542	0.096376	0.291554	1318.860107
3628.024487	0.095621	0.291554	1409.222290
3628.025381	0.095552	0.291554	1494.645508
3628.026286	0.095559	0.291554	1581.126465
3628.027178	0.095585	0.291554	1666.388062
3628.028129	0.095592	0.291554	1757.296143
3628.029031	0.095548	0.291554	1843.480469
3628.029936	0.095607	0.291554	1930.004517
3628.030855	0.095614	0.291554	2017.873779
3628.031755	0.095599	0.291554	2103.913086
3629.026028	1.352036	0.301347	620.584595
3629.026940	0.670481	0.301347	1232.063232
3629.027829	0.096420	0.301347	1317.780273
3629.028777	0.095515	0.301347	1408.328613
3629.029682	0.095497	0.301347	1494.753296
3629.030593	0.095475	0.301347	1581.730835
3629.031492	0.095552	0.301347	1667.631836
3629.032432	0.095438	0.301347	1757.343750
3629.033345	0.095482	0.301347	1844.519043
3629.034265	0.095457	0.301347	1932.339111
3629.035154	0.095479	0.301347	2017.219482
3629.036114	0.095464	0.301347	2108.864746
3630.036201	1.357661	0.292267	627.239441
3630.037099	0.688986	0.292267	1245.948486
3630.038052	0.096449	0.292267	1337.864380
3630.038953	0.095424	0.292267	1423.841064
3630.039844	0.095431	0.292267	1508.869995
3630.040732	0.095490	0.292267	1593.664673
3630.041668	0.095607	0.292267	1683.152588
3630.042574	0.095508	0.292267	1769.682617
3630.043466	0.095574	0.292267	1854.934326
3630.044387	0.095522	0.292267	1942.910522
3630.045297	0.095533	0.292267	2029.845947
3630.046192	0.095457	0.292267	2115.279541
3631.044587	1.348784	0.298112	602.906555
3631.045517	0.660377	0.298112	1217.057373
3631.046413	0.096302	0.298112	1303.344360
3631.047356	0.095471	0.298112	1393.373657
3631.048251	0.095497	0.298112	1478.843262
3631.049147	0.095446	0.298112	1564.362427
3631.050031	0.095471	0.298112	1648.758911
3631.050967	0.095563	0.298112	1738.205688
3631.051866	0.095522	0.298112	1824.080322
3631.052766	0.095464	0.298112	1909.997803
3631.053654	0.095504	0.298112	1994.805542
3631.054598	0.095504	0.298112	2084.961426
3632.051157	1.345609	0.298172	597.450439
3632.052084	0.674495	0.298172	1222.707031
3632.052980	0.096295	0.298172	1308.987549
3632.053919	0.095482	0.298172	1398.645264
3632.054817	0.095581	0.298172	1484.477051
3632.055714	0.095405	0.298172	1570.055542
3632.056600	0.095442	0.298172	1654.617065
3632.057541	0.095504	0.298172	1744.486450
3632.058438	0.095515	0.298172	1830.163574
3632.059330	0.095471	0.298172	1915.323853
3632.060218	0.095482	0.298172	2000.112061
3632.061165	0.095588	0.298172	2090.634277
3633.062612	1.348956	0.305032	602.983459
3633.063511	0.709167	0.305032	1240.525024
3633.064456	0.096215	0.305032	1331.447876
3633.065368	0.095284	0.305032	1418.347290
3633.066277	0.095424	0.305032	1505.087280
3633.067164	0.095431	0.305032	1589.734497
3633.068107	0.095460	0.305032	1679.753418
3633.069003	0.095409	0.305032	1765.239868
3633.069894	0.095471	0.305032	1850.304687
3633.070829	0.095515	0.305032	1939.611328
3633.071717	0.095446	0.305032	2024.366943
3633.072624	0.095391	0.305032	2110.886230
3634.066943	1.353021	0.295240	665.686462
3634.067875	0.567360	0.295240	1194.465576
3634.068772	0.095764	0.295240	1280.365967
3634.069657	0.095438	0.295240	1364.828857
3634.070602	0.095471	0.295240	1455.049072
3634.071506	0.095431	0.295240	1541.318604
3634.072405	0.095398	0.295240	1627.081299
3634.073290	0.095511	0.295240	1711.609009
3634.074245	0.095519	0.295240	1802.829468
3634.075152	0.095442	0.295240	1889.395264
3634.076043	0.095442	0.295240	1974.433960
3634.076971	0.095570	0.295240	2063.123047
3635.080673	1.353424	0.301439	607.687378
3635.081600	0.673678	0.301439	1232.186890
3635.082494	0.096453	0.301439	1318.415527
3635.083419	0.095490	0.301439	1406.743286
3635.084338	0.095625	0.301439	1494.622681
3635.085243	0.095438	0.301439	1580.994263
3635.086138	0.095541	0.301439	1666.503296
3635.087061	0.095555	0.301439	1754.700928
3635.087977	0.095566	0.301439	1842.239746
3635.088880	0.095497	0.301439	1928.473389
3635.089764	0.095500	0.301439	2012.895752
3635.090720	0.095548	0.301439	2104.239746
3636.083660	1.318228	0.298913	577.383667
3636.084637	0.609463	0.298913	1172.828857
3636.085537	0.095918	0.298913	1259.155029
3636.086450	0.095446	0.298913	1346.296875
3636.087343	0.095500	0.298913	1431.578857
3636.088307	0.095449	0.298913	1523.591919
3636.089211	0.095427	0.298913	1609.858154
3636.090102	0.095306	0.298913	1694.776123
3636.091031	0.095361	0.298913	1783.366821
3636.091950	0.095431	0.298913	1871.067871
3636.092870	0.095552	0.298913	1958.975464
3636.093758	0.095490	0.298913	2043.770142
3637.098699	1.319264	0.292968	573.879822
3637.099598	0.730924	0.292968	1230.980591
3637.100574	0.095900	0.292968	1324.578613
3637.101496	0.095380	0.292968	1412.518677
3637.102389	0.095508	0.292968	1497.807129
3637.103320	0.095566	0.292968	1586.779419
3637.104218	0.095555	0.292968	1672.588135
3637.105122	0.095420	0.292968	1758.847778
3637.106011	0.095493	0.292968	1843.741211
3637.106950	0.095533	0.292968	1933.447144
3637.107842	0.095500	0.292968	2018.633545
3637.108739	0.095347	0.292968	2104.159424
3638.101461	1.339109	0.298486	599.920776
3638.102361	0.712024	0.298486	1240.742310
3638.103309	0.096617	0.298486	1332.335693
3638.104205	0.095515	0.298486	1417.917236
3638.105102	0.095446	0.298486	1503.531860
3638.105994	0.095460	0.298486	1588.682373
3638.106928	0.095479	0.298486	1677.859253
3638.107835	0.095486	0.298486	1764.464966
3638.108736	0.095391	0.298486	1850.411865
3638.109624	0.095515	0.298486	1935.229248
3638.110559	0.095566	0.298486	2024.583862
3638.111468	0.095387	0.298486	2111.290527
3639.116810	1.407451	0.288794	698.095764
3639.117727	0.595906	0.288794	1244.541382
3639.118620	0.095892	0.288794	1330.173218
3639.119505	0.095409	0.288794	1414.610107
3639.120454	0.095592	0.288794	1505.326904
3639.121352	0.095442	0.288794	1591.033691
3639.122251	0.095570	0.288794	1676.951172
3639.123187	0.095552	0.288794	1766.387573
3639.124097	0.095640	0.288794	1853.419678
3639.124997	0.095490	0.288794	1939.360229
3639.125885	0.095475	0.288794	2024.141846
3639.126836	0.095563	0.288794	2115.021973
3640.119496	1.326782	0.297737	581.130615
3640.120423	0.717023	0.297737	1245.810669
3640.121368	0.095845	0.297737	1336.383911
3640.122274	0.095380	0.297737	1422.797852
3640.123164	0.095438	0.297737	1507.737915
3640.124094	0.095438	0.297737	1596.495483
3640.125012	0.095416	0.297737	1684.087646
3640.125929	0.095508	0.297737	1771.668335
3640.126813	0.095468	0.297737	1856.061646
3640.127769	0.095544	0.297737	1947.402100
3640.128656	0.095453	0.297737	2032.068848
3640.129545	0.095475	0.297737	2116.946045
3641.132493	1.333407	0.283666	589.365845
3641.133473	0.570923	0.283666	1148.870239
3641.134374	0.095775	0.283666	1235.163696
3641.135273	0.095482	0.283666	1321.002197
3641.136199	0.095526	0.283666	1409.459351
3641.137105	0.095522	0.283666	1496.002686
3641.138007	0.095468	0.283666	1582.114380
3641.138896	0.095405	0.283666	1666.929687
3641.139831	0.095537	0.283666	1756.256836
3641.140734	0.095493	0.283666	1842.487183
3641.141639	0.095409	0.283666	1928.832275
3641.142528	0.095383	0.283666	2013.628052
3642.137809	1.333070	0.292988	591.883118
3642.138710	0.721414	0.292988	1241.876709
3642.139667	0.096669	0.292988	1334.388672
3642.140565	0.095475	0.292988	1420.125122
3642.141462	0.095372	0.292988	1505.674072
3642.142348	0.095460	0.292988	1590.251831
3642.143292	0.095559	0.292988	1680.459595
3642.144180	0.095490	0.292988	1765.254272
3642.145082	0.095500	0.292988	1851.395752
3642.145985	0.095446	0.292988	1937.583130
3642.146915	0.095522	0.292988	2026.419067
3642.147814	0.095402	0.292988	2112.185059
3643.149002	1.319319	0.276178	573.903687
3643.149894	0.739266	0.276178	1233.329346
3643.150868	0.096097	0.276178	1326.928223
3643.151770	0.095365	0.276178	1412.947388
3643.152663	0.095541	0.276178	1498.265259
3643.153614	0.095500	0.276178	1589.086182
3643.154513	0.095394	0.276178	1674.845703
3643.155428	0.095442	0.276178	1762.175049
3643.156319	0.095500	0.276178	1847.265991
3643.157261	0.095504	0.276178	1937.230957
3643.158170	0.095402	0.276178	2023.951050
3643.159059	0.095497	0.276178	2108.847656
3644.155909	1.342555	0.286885	665.907227
3644.156837	0.589208	0.286885	1212.691895
3644.157746	0.095739	0.286885	1299.718262
3644.158643	0.095504	0.286885	1385.385498
3644.159572	0.095541	0.286885	1474.142822
3644.160474	0.095563	0.286885	1560.340454
3644.161378	0.095442	0.286885	1646.619873
3644.162265	0.095515	0.286885	1731.341797
3644.163235	0.095574	0.286885	1824.048340
3644.164143	0.095471	0.286885	1910.736206
3644.165034	0.095446	0.286885	1995.778198
3644.165977	0.095541	0.286885	2085.873047
3645.164260	1.354413	0.273052	620.321045
3645.165159	0.691824	0.273052	1242.270508
3645.166107	0.096284	0.273052	1333.547852
3645.167002	0.095548	0.273052	1419.063354
3645.167903	0.095563	0.273052	1505.165405
3645.168790	0.095475	0.273052	1589.851562
3645.169757	0.095559	0.273052	1682.257202
3645.170657	0.095493	0.273052	1768.201050
3645.171559	0.095522	0.273052	1854.362305
3645.172490	0.095544	0.273052	1943.314209
3645.173388	0.095533	0.273052	2029.103271
3645.174290	0.095537	0.273052	2115.277832
3646.173911	1.336359	0.284283	596.015991
3646.174816	0.710215	0.284283	1238.760498
3646.175754	0.096830	0.284283	1329.586914
3646.176651	0.095588	0.284283	1415.329712
3646.177547	0.095431	0.284283	1500.835815
3646.178432	0.095552	0.284283	1585.399170
3646.179354	0.095537	0.284283	1673.484375
3646.180263	0.095570	0.284283	1760.357544
3646.181164	0.095508	0.284283	1846.410034
3646.182054	0.095515	0.284283	1931.418457
3646.183002	0.095621	0.284283	2022.067505
3646.183903	0.095493	0.284283	2108.106934
3647.179015	1.358364	0.277620	677.823730
3647.179940	0.579803	0.277620	1214.141968
3647.180835	0.095878	0.277620	1299.952515
3647.181723	0.095490	0.277620	1384.747192
3647.182666	0.095651	0.277620	1474.945801
3647.183566	0.095541	0.277620	1560.932495
3647.184471	0.095544	0.277620	1647.400146
3647.185357	0.095490	0.277620	1732.003906
3647.186309	0.095563	0.277620	1822.979614
3647.187214	0.095424	0.277620	1909.337891
3647.188110	0.095383	0.277620	1994.801270
3647.189041	0.095552	0.277620	2083.760010
3648.191209	1.333191	0.279457	610.601440
3648.192118	0.691154	0.279457	1238.860107
3648.193003	0.096548	0.279457	1324.304932
3648.193965	0.095544	0.279457	1416.218628
3648.194874	0.095471	0.279457	1503.001953
3648.195797	0.095504	0.279457	1591.152344
3648.196686	0.095416	0.279457	1675.977417
3648.197631	0.095533	0.279457	1766.256470
3648.198553	0.095424	0.279457	1854.237061
3648.199437	0.095500	0.279457	1938.659424
3648.200377	0.095490	0.279457	2028.419556
3648.201291	0.095453	0.279457	2115.663574
3649.193933	1.326577	0.280854	586.347046
3649.194837	0.722109	0.280854	1239.133911
3649.195788	0.096116	0.280854	1330.539917
3649.196700	0.095398	0.280854	1417.542847
3649.197599	0.095479	0.280854	1503.378052
3649.198485	0.095511	0.280854	1588.001221
3649.199423	0.095479	0.280854	1677.560059
3649.200338	0.095457	0.280854	1764.902832
3649.201229	0.095449	0.280854	1849.948120
3649.202161	0.095490	0.280854	1938.944336
3649.203059	0.095493	0.280854	2024.697144
3649.203956	0.095394	0.280854	2110.265869
3650.207948	1.325995	0.281579	579.459778
3650.208904	0.642045	0.281579	1193.254395
3650.209804	0.096233	0.281579	1279.864014
3650.210701	0.095530	0.281579	1365.554199
3650.211590	0.095559	0.281579	1450.506226
3650.212523	0.095651	0.281579	1539.748291
3650.213435	0.095555	0.281579	1626.894775
3650.214332	0.095559	0.281579	1712.611328
3650.215250	0.095504	0.281579	1800.284180
3650.216181	0.095519	0.281579	1889.212158
3650.217088	0.095508	0.281579	1975.837769
3650.217987	0.095490	0.281579	2061.682861
3651.209177	1.343939	0.283384	598.052917
3651.210101	0.677952	0.283384	1224.480225
3651.210991	0.096350	0.283384	1310.231812
3651.211939	0.095522	0.283384	1400.787109
3651.212840	0.095533	0.283384	1486.862793
3651.213731	0.095504	0.283384	1571.957031
3651.214619	0.095552	0.283384	1656.807007
3651.215563	0.095592	0.283384	1747.045898
3651.216468	0.095479	0.283384	1833.453979
3651.217366	0.095413	0.283384	1919.134521
3651.218250	0.095522	0.283384	2003.576416
3651.219195	0.095519	0.283384	2093.841797
3652.225227	1.334491	0.288967	588.510559
3652.226203	0.599517	0.288967	1173.638672
3652.227098	0.095874	0.288967	1259.445923
3652.227985	0.095457	0.288967	1344.115845
3652.228918	0.095526	0.288967	1433.241699
3652.229833	0.095504	0.288967	1520.628052
3652.230742	0.095468	0.288967	1607.408081
3652.231634	0.095493	0.288967	1692.588013
3652.232581	0.095625	0.288967	1783.144897
3652.233483	0.095435	0.288967	1869.226929
3652.234378	0.095482	0.288967	1954.683472
3652.235265	0.095486	0.288967	2039.379395
3653.224650	1.332045	0.288625	587.431702
3653.225628	0.585341	0.288625	1159.894775
3653.226534	0.095918	0.288625	1246.796509
3653.227425	0.095435	0.288625	1331.828735
3653.228361	0.095574	0.288625	1421.285767
3653.229256	0.095541	0.288625	1506.794800
3653.230165	0.095548	0.288625	1593.648071
3653.231063	0.095548	0.288625	1679.450195
3653.231991	0.095530	0.288625	1768.101807
3653.232901	0.095530	0.288625	1855.033936
3653.233809	0.095479	0.288625	1941.728394
3653.234696	0.095552	0.288625	2026.482788
3654.242029	1.361660	0.290426	623.640381
3654.242951	0.653470	0.290426	1226.140137
3654.243852	0.096196	0.290426	1312.812988
3654.244748	0.095427	0.290426	1398.315796
3654.245698	0.095511	0.290426	1489.051758
3654.246601	0.095479	0.290426	1575.268799
3654.247498	0.095431	0.290426	1660.870361
3654.248419	0.095599	0.290426	1748.917358
3654.249320	0.095530	0.290426	1834.989746
3654.250222	0.095497	0.290426	1921.127930
3654.251106	0.095490	0.290426	2005.540649
3654.252048	0.095592	0.290426	2095.588379
3655.240646	1.316272	0.287465	569.945740
3655.241597	0.688729	0.287465	1224.927246
3655.242510	0.096042	0.287465	1312.614014
3655.243414	0.095457	0.287465	1398.906738
3655.244302	0.095398	0.287465	1483.620117
3655.245239	0.095544	0.287465	1573.145264
3655.246145	0.095460	0.287465	1659.632202
3655.247040	0.095479	0.287465	1745.085449
3655.247927	0.095522	0.287465	1829.813843
3655.248852	0.095570	0.287465	1918.216187
3655.249756	0.095453	0.287465	2004.505615
3655.250647	0.095468	0.287465	2089.567139
3656.258250	1.323179	0.291985	575.582703
3656.259215	0.621196	0.291985	1175.037109
3656.260130	0.095812	0.291985	1262.704834
3656.261039	0.095427	0.291985	1349.448242
3656.261937	0.095482	0.291985	1435.191284
3656.262896	0.095460	0.291985	1526.737671
3656.263796	0.095471	0.291985	1612.661743
3656.264682	0.095468	0.291985	1697.245972
3656.265612	0.095519	0.291985	1786.078491
3656.266516	0.095431	0.291985	1872.348022
3656.267413	0.095511	0.291985	1958.021851
3656.268298	0.095442	0.291985	2042.487915
3657.257668	1.327185	0.289866	578.652649
3657.258649	0.600150	0.289866	1167.399902
3657.259564	0.095878	0.289866	1255.127930
3657.260448	0.095365	0.289866	1339.430542
3657.261379	0.095515	0.289866	1428.355103
3657.262290	0.095537	0.289866	1515.389404
3657.263186	0.095427	0.289866	1600.892212
3657.264072	0.095365	0.289866	1685.385620
3657.265022	0.095519	0.289866	1776.128418
3657.265921	0.095468	0.289866	1861.953735
3657.266833	0.095446	0.289866	1949.000122
3657.267731	0.095453	0.289866	2034.716797
3658.274846	1.419628	0.289221	739.626038
3658.275751	0.562859	0.289221	1249.013306
3658.276654	0.095706	0.289221	1335.435425
3658.277544	0.095387	0.289221	1420.329834
3658.278490	0.095632	0.289221	1510.797974
3658.279392	0.095460	0.289221	1596.903076
3658.280293	0.095552	0.289221	1682.995239
3658.281215	0.095522	0.289221	1771.066895
3658.282117	0.095621	0.289221	1857.317383
3658.283006	0.095482	0.289221	1942.201050
3658.283894	0.095511	0.289221	2027.015259
3658.284836	0.095526	0.289221	2117.000977
3659.273670	1.317125	0.290373	571.632324
3659.274613	0.666075	0.290373	1199.741455
3659.275527	0.096097	0.290373	1287.574463
3659.276423	0.095435	0.290373	1373.083862
3659.277309	0.095504	0.290373	1457.700562
3659.278250	0.095570	0.290373	1547.631958
3659.279159	0.095490	0.290373	1634.431885
3659.280052	0.095479	0.290373	1719.694214
3659.280955	0.095479	0.290373	1805.911255
3659.281892	0.095490	0.290373	1895.384888
3659.282799	0.095435	0.290373	1981.944092
3659.283695	0.095394	0.290373	2067.417480
3660.291011	1.316715	0.296786	570.137573
3660.291973	0.672770	0.296786	1217.342041
3660.292881	0.095925	0.296786	1304.442261
3660.293807	0.095394	0.296786	1392.777344
3660.294693	0.095427	0.296786	1477.325928
3660.295656	0.095522	0.296786	1569.314087
3660.296556	0.095438	0.296786	1655.208496
3660.297444	0.095372	0.296786	1739.899170
3660.298397	0.095552	0.296786	1830.959961
3660.299299	0.095435	0.296786	1917.041992
3660.300200	0.095402	0.296786	2002.998779
3660.301092	0.095442	0.296786	2088.133057
3661.290441	1.322611	0.293246	580.626221
3661.291406	0.616340	0.293246	1175.394653
3661.292314	0.096050	0.293246	1262.607910
3661.293212	0.095493	0.293246	1348.360718
3661.294139	0.095468	0.293246	1436.859131
3661.295055	0.095548	0.293246	1524.381226
3661.295963	0.095398	0.293246	1611.002563
3661.296864	0.095482	0.293246	1697.031982
3661.297806	0.095592	0.293246	1787.079712
3661.298703	0.095552	0.293246	1872.789673
3661.299605	0.095500	0.293246	1958.931152
3661.300491	0.095497	0.293246	2043.541382
3662.306757	1.322417	0.298470	573.928955
3662.307734	0.612385	0.298470	1172.229370
3662.308637	0.095977	0.298470	1258.896240
3662.309541	0.095515	0.298470	1345.241943
3662.310426	0.095511	0.298470	1429.769653
3662.311376	0.095618	0.298470	1520.606445
3662.312278	0.095574	0.298470	1606.813965
3662.313169	0.095511	0.298470	1691.914673
3662.314098	0.095570	0.298470	1780.699219
3662.314997	0.095563	0.298470	1866.610107
3662.315894	0.095486	0.298470	1952.260864
3662.316794	0.095533	0.298470	2038.240967
3663.307520	1.377470	0.291852	679.092468
3663.308438	0.605493	0.291852	1234.935181
3663.309331	0.096061	0.291852	1320.717529
3663.310217	0.095402	0.291852	1405.243408
3663.311165	0.095603	0.291852	1495.875122
3663.312061	0.095537	0.291852	1581.476318
3663.312966	0.095522	0.291852	1667.924194
3663.313871	0.095500	0.291852	1754.352173
3663.314805	0.095585	0.291852	1843.628296
3663.315710	0.095555	0.291852	1930.105957
3663.316602	0.095497	0.291852	2015.289062
3663.317542	0.095574	0.291852	2105.128418
3664.322007	1.342954	0.301302	604.329346
3664.322911	0.702784	0.301302	1239.646484
3664.323797	0.096665	0.301302	1325.291748
3664.324759	0.095570	0.301302	1417.230103
3664.325666	0.095533	0.301302	1503.878906
3664.326564	0.095515	0.301302	1589.651489
3664.327447	0.095442	0.301302	1673.926636
3664.328374	0.095537	0.301302	1762.489502
3664.329277	0.095475	0.301302	1848.703247
3664.330167	0.095457	0.301302	1933.659546
3664.331105	0.095533	0.301302	2023.269897
3664.332009	0.095449	0.301302	2109.555908
3665.324763	1.350450	0.290092	605.001770
3665.325667	0.703506	0.290092	1240.971069
3665.326557	0.096566	0.290092	1326.914917
3665.327497	0.095486	0.290092	1416.671631
3665.328409	0.095511	0.290092	1503.778076
3665.329313	0.095398	0.290092	1590.017822
3665.330201	0.095453	0.290092	1674.780029
3665.331141	0.095544	0.290092	1764.591797
3665.332048	0.095508	0.290092	1851.217407
3665.332942	0.095508	0.290092	1936.601440
3665.333887	0.095479	0.290092	2026.828613
3665.334777	0.095585	0.290092	2111.898926
3666.337286	1.375990	0.298068	683.867065
3666.338213	0.587106	0.298068	1228.114014
3666.339101	0.095980	0.298068	1313.344482
3666.339994	0.095486	0.298068	1398.613281
3666.340926	0.095588	0.298068	1487.701660
3666.341837	0.095500	0.298068	1574.702637
3666.342735	0.095427	0.298068	1660.396240
3666.343650	0.095555	0.298068	1747.829468
3666.344553	0.095541	0.298068	1834.102783
3666.345459	0.095449	0.298068	1920.579834
3666.346349	0.095493	0.298068	2005.568726
3666.347286	0.095515	0.298068	2095.066406
3667.342303	1.349436	0.290144	609.945068
3667.343208	0.694636	0.290144	1238.590820
3667.344096	0.096588	0.290144	1324.361084
3667.345064	0.095519	0.290144	1416.823242
3667.345972	0.095468	0.290144	1503.507812
3667.346862	0.095479	0.290144	1588.483643
3667.347796	0.095526	0.290144	1677.705078
3667.348710	0.095533	0.290144	1765.022705
3667.349605	0.095479	0.290144	1850.475952
3667.350500	0.095475	0.290144	1935.925903
3667.351434	0.095486	0.290144	2025.109619
3667.352340	0.095486	0.290144	2111.619873
3668.351969	1.354673	0.299570	617.730774
3668.352867	0.701049	0.299570	1247.272461
3668.353814	0.096237	0.299570	1338.408447
3668.354712	0.095427	0.299570	1424.102051
3668.355607	0.095471	0.299570	1509.548828
3668.356496	0.095449	0.299570	1594.403198
3668.357452	0.095566	0.299570	1685.764648
3668.358358	0.095464	0.299570	1772.254883
3668.359261	0.095420	0.299570	1858.419067
3668.360196	0.095435	0.299570	1947.650391
3668.361093	0.095552	0.299570	2033.360352
3668.361983	0.095409	0.299570	2118.274414
3669.360390	1.403584	0.289749	703.195496
3669.361305	0.595269	0.289749	1247.866211
3669.362202	0.095867	0.289749	1333.858643
3669.363087	0.095372	0.289749	1418.263184
3669.364035	0.095566	0.289749	1508.860107
3669.364936	0.095416	0.289749	1594.830200
3669.365831	0.095457	0.289749	1680.263794
3669.366775	0.095559	0.289749	1770.471558
3669.367679	0.095614	0.289749	1856.906616
3669.368587	0.095435	0.289749	1943.561157
3669.369476	0.095486	0.289749	2028.448120
3669.370433	0.095592	0.289749	2119.929687
3670.366972	1.403049	0.297129	679.075867
3670.367898	0.596810	0.297129	1231.722168
3670.368804	0.095870	0.297129	1318.580688
3670.369697	0.095479	0.297129	1403.843018
3670.370647	0.095544	0.297129	1494.610229
3670.371547	0.095468	0.297129	1580.531006
3670.372439	0.095515	0.297129	1665.730469
3670.373371	0.095559	0.297129	1754.791504
3670.374268	0.095544	0.297129	1840.494873
3670.375162	0.095519	0.297129	1925.888672
3670.376050	0.095526	0.297129	2010.715820
3670.376982	0.095504	0.297129	2099.725586
3671.379652	1.319227	0.283630	573.863892
3671.380648	0.593994	0.283630	1165.482056
3671.381553	0.095896	0.283630	1252.267944
3671.382445	0.095468	0.283630	1337.424927
3671.383335	0.095500	0.283630	1422.420410
3671.384267	0.095522	0.283630	1511.447388
3671.385171	0.095508	0.283630	1597.786499
3671.386059	0.095497	0.283630	1682.587646
3671.386991	0.095610	0.283630	1771.696533
3671.387894	0.095541	0.283630	1857.969849
3671.388798	0.095552	0.283630	1944.348633
3671.389682	0.095486	0.283630	2028.758057
3672.383967	1.340929	0.293632	596.713379
3672.384891	0.688839	0.293632	1233.200684
3672.385779	0.096493	0.293632	1318.886353
3672.386709	0.095566	0.293632	1407.763062
3672.387614	0.095548	0.293632	1494.234131
3672.388519	0.095577	0.293632	1580.731689
3672.389409	0.095566	0.293632	1665.785767
3672.390345	0.095662	0.293632	1755.325073
3672.391249	0.095599	0.293632	1841.746948
3672.392151	0.095537	0.293632	1927.921387
3672.393080	0.095607	0.293632	2016.739990
3672.393980	0.095596	0.293632	2102.776123
3673.397978	1.346997	0.277720	607.495667
3673.398878	0.709453	0.277720	1246.003418
3673.399812	0.096724	0.277720	1336.343262
3673.400718	0.095493	0.277720	1422.860107
3673.401620	0.095500	0.277720	1509.001587
3673.402510	0.095504	0.277720	1594.000244
3673.403460	0.095500	0.277720	1684.725708
3673.404355	0.095416	0.277720	1770.123291
3673.405259	0.095486	0.277720	1856.442505
3673.406158	0.095533	0.277720	1942.327026
3673.407088	0.095504	0.277720	2031.145874
3673.407994	0.095475	0.277720	2117.645996
3674.400743	1.359459	0.286732	617.194519
3674.401654	0.680035	0.286732	1236.706787
3674.402545	0.096420	0.286732	1322.616699
3674.403506	0.095526	0.286732	1414.417358
3674.404407	0.095493	0.286732	1500.456665
3674.405298	0.095420	0.286732	1585.475830
3674.406188	0.095468	0.286732	1670.441895
3674.407127	0.095544	0.286732	1760.158081
3674.408039	0.095405	0.286732	1847.167725
3674.408941	0.095453	0.286732	1933.266235
3674.409837	0.095427	0.286732	2018.769043
3674.410785	0.095464	0.286732	2109.268799
3675.416556	1.377686	0.283404	639.246094
3675.417476	0.637694	0.283404	1225.924683
3675.418383	0.096002	0.283404	1312.998657
3675.419280	0.095541	0.283404	1398.698730
3675.420220	0.095581	0.283404	1488.544922
3675.421123	0.095438	0.283404	1574.725586
3675.422020	0.095391	0.283404	1660.291016
3675.422952	0.095522	0.283404	1749.317993
3675.423851	0.095618	0.283404	1835.278320
3675.424750	0.095446	0.283404	1921.083862
3675.425635	0.095526	0.283404	2005.624512
3675.426564	0.095511	0.283404	2094.354736
3676.418503	1.319883	0.283122	574.148987
3676.419446	0.694263	0.283122	1228.838623
3676.420349	0.096233	0.283122	1315.736938
3676.421251	0.095490	0.283122	1401.868408
3676.422138	0.095526	0.283122	1486.600098
3676.423091	0.095676	0.283122	1577.779541
3676.423990	0.095625	0.283122	1663.746460
3676.424883	0.095522	0.283122	1749.047974
3676.425776	0.095533	0.283122	1834.359375
3676.426721	0.095618	0.283122	1924.718018
3676.427637	0.095511	0.283122	2012.206543
3676.428530	0.095490	0.283122	2097.478760
3677.434356	1.381018	0.274091	654.602539
3677.435263	0.650438	0.274091	1244.550049
3677.436149	0.096182	0.274091	1329.766968
3677.437088	0.095544	0.274091	1419.483154
3677.437988	0.095479	0.274091	1505.413818
3677.438907	0.095533	0.274091	1593.209106
3677.439797	0.095508	0.274091	1678.211060
3677.440761	0.095559	0.274091	1770.330078
3677.441664	0.095577	0.274091	1856.636475
3677.442556	0.095548	0.274091	1941.865356
3677.443488	0.095614	0.274091	2030.977661
3677.444393	0.095526	0.274091	2117.428711
3678.436834	1.355270	0.278671	616.647766
3678.437736	0.699276	0.278671	1247.394775
3678.438622	0.096614	0.278671	1332.994629
3678.439588	0.095522	0.278671	1425.269287
3678.440483	0.095588	0.278671	1510.820923
3678.441389	0.095603	0.278671	1597.437256
3678.442276	0.095442	0.278671	1682.094238
3678.443228	0.095625	0.278671	1773.129272
3678.444134	0.095460	0.278671	1859.616211
3678.445031	0.095522	0.278671	1945.299805
3678.445964	0.095566	0.278671	2034.463257
3678.446864	0.095574	0.278671	2120.479492
3679.451335	1.327903	0.278808	582.949341
3679.452229	0.719238	0.278808	1225.948364
3679.453200	0.096156	0.278808	1319.315796
3679.454113	0.095508	0.278808	1406.514404
3679.455003	0.095511	0.278808	1491.519653
3679.455944	0.095607	0.278808	1581.485596
3679.456841	0.095541	0.278808	1667.185669
3679.457744	0.095559	0.278808	1753.475464
3679.458632	0.095522	0.278808	1838.299438
3679.459581	0.095636	0.278808	1929.057983
3679.460489	0.095519	0.278808	2015.789062
3679.461387	0.095541	0.278808	2101.584717
3680.454857	1.318081	0.279054	570.729065
3680.455800	0.670598	0.279054	1203.103149
3680.456711	0.096064	0.279054	1290.617920
3680.457611	0.095471	0.279054	1376.541992
3680.458496	0.095522	0.279054	1461.079346
3680.459451	0.095511	0.279054	1552.292847
3680.460366	0.095511	0.279054	1639.685791
3680.461261	0.095526	0.279054	1725.181641
3680.462164	0.095577	0.279054	1811.488037
3680.463090	0.095588	0.279054	1900.002930
3680.463994	0.095453	0.279054	1986.292358
3680.464891	0.095453	0.279054	2071.913574
3681.466597	1.345693	0.285765	609.599060
3681.467510	0.689784	0.285765	1239.371826
3681.468400	0.096390	0.285765	1325.159302
3681.469349	0.095449	0.285765	1415.740601
3681.470279	0.095515	0.285765	1504.569702
3681.471179	0.095530	0.285765	1590.546509
3681.472069	0.095530	0.285765	1675.567993
3681.473000	0.095552	0.285765	1764.526733
3681.473910	0.095544	0.285765	1851.472168
3681.474816	0.095533	0.285765	1938.025513
3681.475715	0.095442	0.285765	2023.827759
3681.476648	0.095511	0.285765	2112.939941
3682.472185	1.352230	0.285846	658.536133
3682.473119	0.574988	0.285846	1195.574707
3682.474018	0.095944	0.285846	1281.828003
3682.474905	0.095442	0.285846	1366.484985
3682.475849	0.095610	0.285846	1456.741211
3682.476744	0.095577	0.285846	1542.282959
3682.477640	0.095497	0.285846	1627.848145
3682.478530	0.095405	0.285846	1712.758789
3682.479475	0.095508	0.285846	1803.013672
3682.480388	0.095449	0.285846	1890.158813
3682.481285	0.095449	0.285846	1975.776733
3682.482205	0.095490	0.285846	2063.626953
3683.482371	1.402837	0.288520	681.778748
3683.483289	0.610532	0.288520	1242.247314
3683.484186	0.096050	0.288520	1328.403931
3683.485073	0.095522	0.288520	1413.132324
3683.486017	0.095636	0.288520	1503.412720
3683.486916	0.095468	0.288520	1589.238037
3683.487813	0.095479	0.288520	1674.882324
3683.488737	0.095559	0.288520	1763.178955
3683.489647	0.095504	0.288520	1850.087769
3683.490549	0.095504	0.288520	1936.232544
3683.491436	0.095519	0.288520	2020.957764
3683.492391	0.095559	0.288520	2112.216797
3684.490200	1.347894	0.281149	603.856567
3684.491103	0.700906	0.281149	1236.774414
3684.492044	0.096643	0.281149	1327.715576
3684.492960	0.095544	0.281149	1415.234253
3684.493865	0.095482	0.281149	1501.645630
3684.494752	0.095405	0.281149	1586.270142
3684.495711	0.095625	0.281149	1677.974487
3684.496611	0.095471	0.281149	1763.898560
3684.497506	0.095504	0.281149	1849.374756
3684.498395	0.095555	0.281149	1934.323486
3684.499326	0.095603	0.281149	2023.329956
3684.500235	0.095427	0.281149	2110.073242
3685.497805	1.323904	0.288992	579.869873
3685.498693	0.731338	0.288992	1229.297852
3685.499651	0.096324	0.288992	1321.576660
3685.500545	0.095493	0.288992	1406.947510
3685.501431	0.095490	0.288992	1491.551270
3685.502364	0.095577	0.288992	1580.724976
3685.503274	0.095596	0.288992	1667.717041
3685.504173	0.095457	0.288992	1753.532471
3685.505060	0.095533	0.288992	1838.270630
3685.506019	0.095511	0.288992	1929.866089
3685.506926	0.095372	0.288992	2016.368774
3685.507822	0.095383	0.288992	2101.832275
3686.508278	1.345415	0.281692	645.799194
3686.509219	0.582645	0.281692	1194.068359
3686.510134	0.095841	0.281692	1281.762939
3686.511024	0.095431	0.281692	1366.696411
3686.511966	0.095643	0.281692	1456.792358
3686.512860	0.095574	0.281692	1542.235229
3686.513759	0.095530	0.281692	1628.116455
3686.514652	0.095500	0.281692	1713.398437
3686.515608	0.095544	0.281692	1804.738892
3686.516514	0.095493	0.281692	1891.255737
3686.517415	0.095548	0.281692	1977.344604
3686.518331	0.095640	0.281692	2064.950439
3687.512789	1.336725	0.293536	593.505859
3687.513687	0.722512	0.293536	1242.321777
3687.514573	0.096903	0.293536	1328.177856
3687.515536	0.095588	0.293536	1420.229492
3687.516436	0.095552	0.293536	1506.226074
3687.517328	0.095537	0.293536	1591.445190
3687.518269	0.095570	0.293536	1681.376587
3687.519161	0.095665	0.293536	1766.709961
3687.520068	0.095552	0.293536	1853.375366
3687.520966	0.095548	0.293536	1939.177490
3687.521893	0.095610	0.293536	2027.808350
3687.522803	0.095629	0.293536	2114.830322
3688.525508	1.320897	0.285330	574.590271
3688.526505	0.594987	0.285330	1167.791870
3688.527396	0.095768	0.285330	1253.120972
3688.528308	0.095453	0.285330	1340.173950
3688.529207	0.095361	0.285330	1425.903809
3688.530161	0.095453	0.285330	1516.965820
3688.531078	0.095416	0.285330	1604.462524
3688.531970	0.095427	0.285330	1689.583618
3688.532909	0.095420	0.285330	1779.182861
3688.533817	0.095424	0.285330	1865.827515
3688.534734	0.095438	0.285330	1953.344360
3688.535622	0.095471	0.285330	2038.122803
3689.528832	1.390338	0.293733	675.704346
3689.529762	0.604208	0.293733	1237.617676
3689.530653	0.095790	0.293733	1322.966431
3689.531540	0.095398	0.293733	1407.584473
3689.532479	0.095468	0.293733	1497.228516
3689.533382	0.095343	0.293733	1583.323242
3689.534272	0.095435	0.293733	1668.260010
3689.535202	0.095475	0.293733	1757.051636
3689.536103	0.095479	0.293733	1843.077759
3689.537015	0.095350	0.293733	1930.037231
3689.537907	0.095387	0.293733	2015.122437
3689.538857	0.095453	0.293733	2105.802734
3690.542838	1.390572	0.287981	666.084167
3690.543750	0.626906	0.287981	1237.822021
3690.544690	0.096196	0.287981	1328.246582
3690.545593	0.095500	0.287981	1414.483521
3690.546492	0.095431	0.287981	1500.275879
3690.547380	0.095438	0.287981	1585.025024
3690.548326	0.095515	0.287981	1675.382324
3690.549221	0.095438	0.287981	1760.799561
3690.550122	0.095464	0.287981	1846.812500
3690.551005	0.095468	0.287981	1931.110352
3690.551933	0.095566	0.287981	2019.796021
3690.552846	0.095453	0.287981	2106.944580
3691.545325	1.355969	0.295191	626.457825
3691.546259	0.641107	0.295191	1225.251953
3691.547147	0.096108	0.295191	1310.596191
3691.548076	0.095555	0.295191	1399.367187
3691.548980	0.095511	0.295191	1485.709595
3691.549882	0.095446	0.295191	1571.801514
3691.550772	0.095519	0.295191	1656.813232
3691.551727	0.095552	0.295191	1748.065186
3691.552623	0.095446	0.295191	1833.584351
3691.553519	0.095431	0.295191	1919.090454
3691.554441	0.095511	0.295191	2007.151978
3691.555352	0.095526	0.295191	2094.176270
3692.559320	1.336480	0.281805	593.396912
3692.560229	0.698687	0.281805	1228.502930
3692.561117	0.096533	0.281805	1314.224365
3692.562054	0.095522	0.281805	1403.728882
3692.562960	0.095464	0.281805	1490.219116
3692.563848	0.095548	0.281805	1575.065796
3692.564750	0.095526	0.281805	1661.230347
3692.565670	0.095555	0.281805	1749.141357
3692.566565	0.095522	0.281805	1834.633911
3692.567451	0.095497	0.281805	1919.244141
3692.568376	0.095508	0.281805	2007.588867
3692.569286	0.095468	0.281805	2094.464355
3693.562081	1.351820	0.295236	609.670837
3693.562983	0.698862	0.295236	1240.044678
3693.563869	0.096533	0.295236	1325.573120
3693.564833	0.095490	0.295236	1417.625000
3693.565732	0.095464	0.295236	1503.447021
3693.566629	0.095442	0.295236	1589.058350
3693.567545	0.095446	0.295236	1676.486450
3693.568461	0.095541	0.295236	1764.001831
3693.569371	0.095457	0.295236	1850.867310
3693.570268	0.095486	0.295236	1936.518066
3693.571201	0.095618	0.295236	2025.729370
3693.572097	0.095515	0.295236	2111.311035
3694.576341	1.332147	0.286095	588.809082
3694.577235	0.724109	0.286095	1236.162354
3694.578194	0.096185	0.286095	1328.404053
3694.579097	0.095380	0.286095	1414.531860
3694.579993	0.095442	0.286095	1500.047852
3694.580925	0.095585	0.286095	1589.132812
3694.581830	0.095464	0.286095	1675.527588
3694.582727	0.095310	0.286095	1761.020752
3694.583616	0.095438	0.286095	1845.865356
3694.584567	0.095537	0.286095	1936.721191
3694.585467	0.095442	0.286095	2022.618896
3694.586367	0.095471	0.286095	2108.542969
3695.578657	1.446013	0.293757	764.940918
3695.579579	0.534664	0.293757	1257.901367
3695.580500	0.095596	0.293757	1345.945068
3695.581383	0.095508	0.293757	1430.278442
3695.582335	0.095464	0.293757	1521.160034
3695.583228	0.095435	0.293757	1606.383057
3695.584116	0.095427	0.293757	1691.122437
3695.585047	0.095555	0.293757	1780.084473
3695.585943	0.095482	0.293757	1865.636475
3695.586862	0.095416	0.293757	1953.323975
3695.587750	0.095515	0.293757	2038.141357
3695.588693	0.095500	0.293757	2128.198242
3696.591573	1.346759	0.285608	599.307800
3696.592497	0.685928	0.285608	1233.104980
3696.593391	0.096416	0.285608	1319.300903
3696.594323	0.095585	0.285608	1408.385864
3696.595231	0.095548	0.285608	1495.143555
3696.596133	0.095398	0.285608	1581.192505
3696.597021	0.095442	0.285608	1665.944946
3696.597973	0.095555	0.285608	1756.913696
3696.598880	0.095471	0.285608	1843.506104
3696.599773	0.095449	0.285608	1928.742310
3696.600717	0.095519	0.285608	2018.912109
3696.601612	0.095548	0.285608	2104.427734
3697.595853	1.321967	0.292311	580.343323
3697.596749	0.736296	0.292311	1240.064941
3697.597682	0.096449	0.292311	1330.051880
3697.598592	0.095504	0.292311	1416.960693
3697.599497	0.095479	0.292311	1503.368774
3697.600382	0.095500	0.292311	1587.886719
3697.601324	0.095592	0.292311	1677.934448
3697.602231	0.095504	0.292311	1764.556763
3697.603122	0.095475	0.292311	1849.624878
3697.604061	0.095581	0.292311	1939.375488
3697.604954	0.095544	0.292311	2024.696655
3697.605860	0.095511	0.292311	2111.229980
3698.608127	1.357031	0.286961	667.659363
3698.609050	0.594020	0.286961	1215.939697
3698.609975	0.095750	0.286961	1304.508057
3698.610871	0.095519	0.286961	1390.092896
3698.611811	0.095548	0.286961	1479.908081
3698.612721	0.095530	0.286961	1566.840210
3698.613640	0.095570	0.286961	1654.669067
3698.614526	0.095526	0.286961	1739.305176
3698.615470	0.095537	0.286961	1829.492187
3698.616363	0.095537	0.286961	1914.806885
3698.617248	0.095541	0.286961	1999.360474
3698.618186	0.095669	0.286961	2089.097900
3699.613127	1.322695	0.294289	580.663269
3699.614094	0.610170	0.294289	1170.697266
3699.615012	0.095878	0.294289	1258.713013
3699.615921	0.095427	0.294289	1345.456421
3699.616808	0.095486	0.294289	1430.152344
3699.617753	0.095559	0.294289	1520.455688
3699.618662	0.095482	0.294289	1607.249023
3699.619555	0.095500	0.294289	1692.531006
3699.620487	0.095552	0.294289	1781.585205
3699.621387	0.095574	0.294289	1867.601562
3699.622289	0.095504	0.294289	1953.746338
3699.623179	0.095526	0.294289	2038.764648
3700.623305	1.327617	0.291397	580.168701
3700.624304	0.550400	0.291397	1130.018677
3700.625219	0.095684	0.291397	1217.569214
3700.626114	0.095544	0.291397	1303.081421
3700.627051	0.095599	0.291397	1392.657959
3700.627944	0.095643	0.291397	1478.067383
3700.628840	0.095541	0.291397	1563.671875
3700.629726	0.095596	0.291397	1648.369629
3700.630677	0.095592	0.291397	1739.277710
3700.631581	0.095515	0.291397	1825.623413
3700.632485	0.095522	0.291397	1911.975708
3700.633372	0.095530	0.291397	1996.710693
3701.629900	1.322743	0.294188	578.038635
3701.630800	0.720443	0.294188	1226.437500
3701.631766	0.096064	0.294188	1319.235718
3701.632670	0.095460	0.294188	1405.531738
3701.633556	0.095548	0.294188	1490.187378
3701.634492	0.095592	0.294188	1579.661499
3701.635402	0.095526	0.294188	1666.590332
3701.636319	0.095526	0.294188	1754.187744
3701.637208	0.095552	0.294188	1839.133301
3701.638156	0.095508	0.294188	1929.674683
3701.639054	0.095416	0.294188	2015.358521
3701.639973	0.095486	0.294188	2103.110107
3702.637532	1.340727	0.291989	596.623718
3702.638459	0.673806	0.291989	1221.241943
3702.639352	0.096313	0.291989	1307.249878
3702.640284	0.095515	0.291989	1396.270020
3702.641185	0.095555	0.291989	1482.365479
3702.642086	0.095559	0.291989	1568.464233
3702.642977	0.095497	0.291989	1653.551880
3702.643920	0.095621	0.291989	1743.722778
3702.644825	0.095541	0.291989	1830.187134
3702.645722	0.095486	0.291989	1915.837891
3702.646627	0.095486	0.291989	2002.252563
3702.647555	0.095621	0.291989	2090.989258
3703.651039	1.348458	0.297351	601.412354
3703.651944	0.704480	0.297351	1238.966797
3703.652833	0.096683	0.297351	1324.918335
3703.653796	0.095610	0.297351	1416.991089
3703.654695	0.095515	0.297351	1502.859253
3703.655588	0.095548	0.297351	1588.183716
3703.656494	0.095493	0.297351	1674.700562
3703.657424	0.095676	0.297351	1763.679443
3703.658339	0.095460	0.297351	1851.025513
3703.659232	0.095497	0.297351	1936.304199
3703.660167	0.095574	0.297351	2025.665649
3703.661065	0.095555	0.297351	2111.474365
3704.654298	1.342566	0.292218	593.414124
3704.655201	0.712581	0.292218	1236.874390
3704.656085	0.096914	0.292218	1322.546387
3704.657042	0.095574	0.292218	1414.010498
3704.657932	0.095541	0.292218	1499.041748
3704.658830	0.095566	0.292218	1584.860352
3704.659744	0.095530	0.292218	1672.174561
3704.660682	0.095632	0.292218	1761.877686
3704.661592	0.095508	0.292218	1848.789795
3704.662485	0.095552	0.292218	1934.117554
3704.663415	0.095599	0.292218	2023.024902
3704.664312	0.095625	0.292218	2108.800537
3705.665739	1.323124	0.302003	580.851318
3705.666633	0.729064	0.302003	1232.634277
3705.667594	0.096182	0.302003	1325.064819
3705.668495	0.095446	0.302003	1411.061279
3705.669379	0.095475	0.302003	1495.461060
3705.670334	0.095471	0.302003	1586.635986
3705.671240	0.095519	0.302003	1673.176025
3705.672146	0.095548	0.302003	1759.742554
3705.673033	0.095380	0.302003	1844.344238
3705.673972	0.095581	0.302003	1934.094849
3705.674885	0.095504	0.302003	2021.290161
3705.675788	0.095504	0.302003	2107.530518
3706.669511	1.330122	0.298067	581.263367
3706.670469	0.623412	0.298067	1178.491943
3706.671384	0.096046	0.298067	1266.374146
3706.672284	0.095416	0.298067	1352.248779
3706.673217	0.095559	0.298067	1441.405396
3706.674122	0.095588	0.298067	1527.912842
3706.675024	0.095427	0.298067	1613.988281
3706.675910	0.095460	0.298067	1698.566040
3706.676857	0.095599	0.298067	1789.098633
3706.677761	0.095500	0.298067	1875.431030
3706.678652	0.095497	0.298067	1960.518677
3706.679564	0.095504	0.298067	2047.618408
3707.684059	1.344390	0.298200	602.286499
3707.684965	0.701290	0.298200	1237.655518
3707.685852	0.096669	0.298200	1323.400635
3707.686800	0.095548	0.298200	1413.980225
3707.687706	0.095552	0.298200	1500.550171
3707.688600	0.095475	0.298200	1585.904663
3707.689530	0.095533	0.298200	1674.750732
3707.690444	0.095596	0.298200	1762.125244
3707.691352	0.095471	0.298200	1848.813110
3707.692251	0.095555	0.298200	1934.717407
3707.693196	0.095570	0.298200	2025.031128
3707.694103	0.095504	0.298200	2111.653320
3708.686792	1.333059	0.301540	582.546814
3708.687783	0.575325	0.301540	1152.693604
3708.688681	0.095856	0.301540	1238.771973
3708.689570	0.095416	0.301540	1323.597046
3708.690511	0.095559	0.301540	1413.518188
3708.691428	0.095486	0.301540	1501.078735
3708.692343	0.095592	0.301540	1588.545410
3708.693231	0.095508	0.301540	1673.356323
3708.694178	0.095541	0.301540	1763.833496
3708.695070	0.095519	0.301540	1849.036255
3708.695962	0.095420	0.301540	1934.150879
3708.696866	0.095610	0.301540	2020.582642
3709.702091	1.316569	0.295461	575.340454
3709.703038	0.656667	0.295461	1197.204590
3709.703942	0.096215	0.295461	1284.182617
3709.704851	0.095471	0.295461	1370.965942
3709.705737	0.095486	0.295461	1455.566406
3709.706681	0.095618	0.295461	1545.829468
3709.707592	0.095497	0.295461	1632.827026
3709.708483	0.095500	0.295461	1717.917969
3709.709416	0.095581	0.295461	1807.095093
3709.710313	0.095574	0.295461	1892.824707
3709.711220	0.095493	0.295461	1979.437012
3709.712108	0.095537	0.295461	2064.273926
3710.704587	1.320293	0.299312	578.288330
3710.705479	0.741775	0.299312	1239.951416
3710.706432	0.096244	0.299312	1331.671875
3710.707347	0.095537	0.299312	1419.088379
3710.708242	0.095511	0.299312	1504.571167
3710.709149	0.095533	0.299312	1591.219971
3710.710086	0.095548	0.299312	1680.748535
3710.710990	0.095530	0.299312	1767.107422
3710.711884	0.095460	0.299312	1852.448853
3710.712809	0.095559	0.299312	1940.841064
3710.713714	0.095585	0.299312	2027.345215
3710.714608	0.095475	0.299312	2112.699707
3711.720404	1.348649	0.292529	605.543274
3711.721305	0.707941	0.292529	1243.397827
3711.722190	0.096786	0.292529	1329.053345
3711.723150	0.095618	0.292529	1420.846313
3711.724061	0.095537	0.292529	1507.880615
3711.724954	0.095482	0.292529	1593.146240
3711.725888	0.095533	0.292529	1682.374512
3711.726789	0.095497	0.292529	1768.417114
3711.727693	0.095504	0.292529	1854.752930
3711.728610	0.095416	0.292529	1942.249634
3711.729504	0.095511	0.292529	2027.636841
3711.730420	0.095541	0.292529	2115.152100
3712.722381	1.327504	0.294543	585.429138
3712.723368	0.576112	0.294543	1154.051758
3712.724265	0.095962	0.294543	1240.129639
3712.725150	0.095460	0.294543	1324.611938
3712.726100	0.095537	0.294543	1415.372192
3712.727010	0.095475	0.294543	1502.254272
3712.727909	0.095530	0.294543	1588.135498
3712.728795	0.095526	0.294543	1672.771606
3712.729757	0.095647	0.294543	1764.783936
3712.730664	0.095486	0.294543	1851.389648
3712.731561	0.095530	0.294543	1937.079834
3712.732499	0.095559	0.294543	2026.714233
3713.737430	1.345107	0.283549	603.953247
3713.738335	0.699778	0.283549	1237.252197
3713.739282	0.096174	0.283549	1328.329224
3713.740188	0.095541	0.283549	1414.889160
3713.741091	0.095511	0.283549	1501.135986
3713.741977	0.095566	0.283549	1585.807861
3713.742920	0.095614	0.283549	1675.971924
3713.743820	0.095446	0.283549	1761.872925
3713.744716	0.095490	0.283549	1847.431519
3713.745659	0.095625	0.283549	1937.605835
3713.746554	0.095592	0.283549	2023.160645
3713.747446	0.095497	0.283549	2108.343750
3714.740691	1.341350	0.291695	598.242126
3714.741598	0.706007	0.291695	1238.590576
3714.742544	0.096222	0.291695	1329.616455
3714.743449	0.095519	0.291695	1416.060913
3714.744353	0.095563	0.291695	1502.449585
3714.745241	0.095508	0.291695	1587.260498
3714.746188	0.095654	0.291695	1677.845093
3714.747090	0.095464	0.291695	1763.953491
3714.747982	0.095442	0.291695	1849.087646
3714.748912	0.095555	0.291695	1937.954224
3714.749809	0.095588	0.291695	2023.697021
3714.750708	0.095504	0.291695	2109.555176
3715.753949	1.344547	0.279006	599.668030
3715.754870	0.679347	0.279006	1225.346558
3715.755767	0.096339	0.279006	1311.762695
3715.756700	0.095504	0.279006	1400.868042
3715.757631	0.095497	0.279006	1489.775635
3715.758548	0.095566	0.279006	1577.410034
3715.759436	0.095530	0.279006	1662.240479
3715.760390	0.095446	0.279006	1753.295532
3715.761289	0.095555	0.279006	1839.199829
3715.762197	0.095577	0.279006	1925.984131
3715.763096	0.095599	0.279006	2011.927979
3715.764037	0.095511	0.279006	2101.804199
3716.758732	1.326398	0.291582	584.941345
3716.759712	0.591215	0.291582	1164.331665
3716.760609	0.096021	0.291582	1250.462036
3716.761497	0.095585	0.291582	1335.341309
3716.762432	0.095581	0.291582	1424.709595
3716.763356	0.095544	0.291582	1512.992676
3716.764264	0.095479	0.291582	1599.687134
3716.765155	0.095599	0.291582	1684.866211
3716.766098	0.095541	0.291582	1774.961182
3716.767009	0.095522	0.291582	1861.982178
3716.767906	0.095555	0.291582	1947.695435
3716.768796	0.095519	0.291582	2032.707153
3717.770956	1.319139	0.274880	576.463928
3717.771913	0.700177	0.274880	1246.533325
3717.772823	0.096160	0.274880	1334.038574
3717.773710	0.095387	0.274880	1418.646851
3717.774599	0.095511	0.274880	1503.556519
3717.775531	0.095504	0.274880	1592.566406
3717.776435	0.095515	0.274880	1678.912109
3717.777344	0.095515	0.274880	1765.735352
3717.778237	0.095581	0.274880	1851.089233
3717.779175	0.095559	0.274880	1940.723633
3717.780079	0.095500	0.274880	2027.056030
3717.780969	0.095468	0.274880	2112.022217
3718.776789	1.341112	0.283235	599.477112
3718.777701	0.692373	0.283235	1230.921387
3718.778643	0.096566	0.283235	1321.886719
3718.779545	0.095533	0.283235	1408.057861
3718.780445	0.095552	0.283235	1494.054443
3718.781332	0.095508	0.283235	1578.769897
3718.782280	0.095632	0.283235	1669.429321
3718.783176	0.095504	0.283235	1755.000977
3718.784069	0.095548	0.283235	1840.325439
3718.784976	0.095570	0.283235	1927.007446
3718.785911	0.095599	0.283235	2016.392822
3718.786819	0.095522	0.283235	2103.127197
3719.787209	1.320740	0.272633	575.842529
3719.788105	0.724307	0.272633	1224.821289
3719.789065	0.096145	0.272633	1317.120483
3719.789971	0.095438	0.272633	1403.587524
3719.790865	0.095541	0.272633	1489.000977
3719.791796	0.095585	0.272633	1577.990356
3719.792697	0.095603	0.272633	1664.128662
3719.793593	0.095515	0.272633	1749.710205
3719.794479	0.095544	0.272633	1834.362549
3719.795431	0.095603	0.272633	1925.376587
3719.796320	0.095577	0.272633	2010.344849
3719.797223	0.095537	0.272633	2096.614746
3720.794346	1.379740	0.286212	651.237305
3720.795248	0.657740	0.286212	1244.519287
3720.796203	0.095999	0.286212	1336.197876
3720.797112	0.095475	0.286212	1422.984497
3720.798035	0.095482	0.286212	1511.114502
3720.798920	0.095530	0.286212	1595.658325
3720.799861	0.095563	0.286212	1685.582886
3720.800759	0.095475	0.286212	1771.319336
3720.801648	0.095500	0.286212	1856.219238
3720.802579	0.095563	0.286212	1945.188110
3720.803489	0.095537	0.286212	2032.126831
3720.804402	0.095504	0.286212	2119.322021
3721.802703	1.340010	0.272983	592.284302
3721.803622	0.685177	0.272983	1221.961914
3721.804511	0.096482	0.272983	1307.734375
3721.805445	0.095673	0.272983	1397.092529
3721.806359	0.095541	0.272983	1484.416748
3721.807261	0.095493	0.272983	1570.551636
3721.808149	0.095504	0.272983	1655.359375
3721.809099	0.095629	0.272983	1746.206543
3721.809991	0.095552	0.272983	1831.438721
3721.810898	0.095533	0.272983	1918.087524
3721.811804	0.095603	0.272983	2004.703857
3721.812742	0.095577	0.272983	2094.355469
3722.811639	1.385006	0.285837	667.572998
3722.812564	0.615172	0.285837	1236.607178
3722.813456	0.096145	0.285837	1322.368530
3722.814344	0.095493	0.285837	1407.166504
3722.815290	0.095636	0.285837	1497.638184
3722.816194	0.095629	0.285837	1584.086548
3722.817096	0.095515	0.285837	1670.241211
3722.818020	0.095577	0.285837	1758.554687
3722.818926	0.095625	0.285837	1845.190918
3722.819833	0.095497	0.285837	1931.806519
3722.820732	0.095526	0.285837	2017.684448
3722.821669	0.095570	0.285837	2107.233643
3723.818959	1.340533	0.275009	592.515747
3723.819859	0.729617	0.275009	1249.170776
3723.820748	0.096852	0.275009	1335.271973
3723.821708	0.095533	0.275009	1426.984131
3723.822613	0.095559	0.275009	1513.465088
3723.823508	0.095537	0.275009	1598.970825
3723.824392	0.095424	0.275009	1683.325317
3723.825335	0.095559	0.275009	1773.437500
3723.826246	0.095464	0.275009	1860.405029
3723.827140	0.095497	0.275009	1945.779175
3723.828069	0.095559	0.275009	2034.553589
3723.828971	0.095596	0.275009	2120.781006
3724.828375	1.341434	0.286546	592.913940
3724.829297	0.693160	0.286546	1232.007812
3724.830198	0.096390	0.286546	1318.855591
3724.831116	0.095544	0.286546	1406.565430
3724.832029	0.095618	0.286546	1493.864380
3724.832931	0.095460	0.286546	1579.969482
3724.833819	0.095544	0.286546	1664.812988
3724.834739	0.095596	0.286546	1752.760986
3724.835641	0.095515	0.286546	1838.915649
3724.836544	0.095497	0.286546	1925.149292
3724.837431	0.095500	0.286546	2009.858276
3724.838381	0.095614	0.286546	2100.691650
3725.834186	1.337992	0.277044	587.378479
3725.835168	0.593525	0.277044	1170.220459
3725.836081	0.095775	0.277044	1257.663208
3725.836971	0.095515	0.277044	1342.671631
3725.837905	0.095522	0.277044	1431.889648
3725.838812	0.095603	0.277044	1518.601562
3725.839714	0.095460	0.277044	1604.706665
3725.840600	0.095453	0.277044	1689.277954
3725.841550	0.095548	0.277044	1780.048584
3725.842447	0.095511	0.277044	1865.722412
3725.843345	0.095460	0.277044	1951.445679
3725.844238	0.095504	0.277044	2036.730835
3726.845192	1.356650	0.285406	679.681824
3726.846123	0.555963	0.285406	1197.283447
3726.847027	0.095717	0.285406	1283.811157
3726.847920	0.095544	0.285406	1369.132324
3726.848862	0.095544	0.285406	1459.135132
3726.849782	0.095511	0.285406	1547.005737
3726.850701	0.095482	0.285406	1634.753906
3726.851589	0.095526	0.285406	1719.581055
3726.852537	0.095515	0.285406	1810.129395
3726.853434	0.095486	0.285406	1895.780151
3726.854320	0.095475	0.285406	1980.370850
3726.855251	0.095588	0.285406	2069.363525
3727.849692	1.341830	0.280649	606.507141
3727.850584	0.705839	0.280649	1236.115234
3727.851531	0.096090	0.280649	1327.112549
3727.852459	0.095347	0.280649	1415.594238
3727.853355	0.095460	0.280649	1501.126587
3727.854289	0.095438	0.280649	1590.265869
3727.855188	0.095460	0.280649	1676.084595
3727.856090	0.095427	0.280649	1762.159912
3727.856980	0.095442	0.280649	1847.103149
3727.857947	0.095570	0.280649	1939.519409
3727.858844	0.095511	0.280649	2025.193237
3727.859740	0.095442	0.280649	2110.709229
3728.861905	1.337369	0.287425	589.779846
3728.862808	0.721256	0.287425	1241.074097
3728.863697	0.096628	0.287425	1326.976807
3728.864652	0.095522	0.287425	1418.200806
3728.865556	0.095544	0.287425	1504.572998
3728.866456	0.095486	0.287425	1590.510254
3728.867375	0.095504	0.287425	1678.278564
3728.868286	0.095511	0.287425	1765.289551
3728.869195	0.095479	0.287425	1852.079468
3728.870088	0.095471	0.287425	1937.335205
3728.871027	0.095555	0.287425	2027.061768
3728.871924	0.095490	0.287425	2112.715820
3729.866194	1.335216	0.280278	594.171204
3729.867099	0.708556	0.280278	1235.414307
3729.867987	0.096687	0.280278	1321.272339
3729.868963	0.095427	0.280278	1414.409302
3729.869873	0.095522	0.280278	1501.334717
3729.870760	0.095526	0.280278	1586.066406
3729.871690	0.095610	0.280278	1674.984009
3729.872592	0.095497	0.280278	1761.122192
3729.873512	0.095420	0.280278	1848.908569
3729.874402	0.095490	0.280278	1933.894287
3729.875352	0.095522	0.280278	2024.640625
3729.876247	0.095500	0.280278	2110.113525
3730.878161	1.332810	0.289399	589.102051
3730.879075	0.703678	0.289399	1232.263672
3730.879963	0.096592	0.289399	1318.037231
3730.880929	0.095559	0.289399	1410.347290
3730.881833	0.095497	0.289399	1496.676392
3730.882730	0.095468	0.289399	1582.310791
3730.883615	0.095453	0.289399	1666.786621
3730.884557	0.095522	0.289399	1756.768799
3730.885462	0.095486	0.289399	1843.183472
3730.886360	0.095464	0.289399	1928.910034
3730.887281	0.095482	0.289399	2016.849121
3730.888181	0.095511	0.289399	2102.809570
3731.882702	1.332415	0.281978	588.927246
3731.883600	0.710793	0.281978	1227.219727
3731.884560	0.096097	0.281978	1319.473267
3731.885474	0.095354	0.281978	1406.626831
3731.886375	0.095457	0.281978	1492.633179
3731.887301	0.095493	0.281978	1581.059814
3731.888195	0.095548	0.281978	1666.479858
3731.889091	0.095464	0.281978	1752.015503
3731.889982	0.095427	0.281978	1837.041138
3731.890925	0.095497	0.281978	1927.094604
3731.891819	0.095511	0.281978	2012.481812
3731.892718	0.095504	0.281978	2098.340088
3732.893132	1.328291	0.296380	585.776367
3732.894106	0.590101	0.296380	1160.535034
3732.895012	0.095907	0.296380	1247.426758
3732.895915	0.095504	0.296380	1333.666992
3732.896802	0.095446	0.296380	1418.327148
3732.897758	0.095566	0.296380	1509.688599
3732.898664	0.095500	0.296380	1596.212036
3732.899561	0.095457	0.296380	1681.836548
3732.900489	0.095585	0.296380	1770.539185
3732.901386	0.095581	0.296380	1856.275391
3732.902282	0.095490	0.296380	1941.833984
3732.903169	0.095486	0.296380	2026.529907
3733.899218	1.340757	0.281958	596.636841
3733.900124	0.707520	0.281958	1237.649536
3733.901035	0.096661	0.281958	1325.708008
3733.901987	0.095405	0.281958	1416.533813
3733.902890	0.095482	0.281958	1502.754272
3733.903781	0.095468	0.281958	1587.815796
3733.904728	0.095500	0.281958	1678.254761
3733.905633	0.095479	0.281958	1764.662842
3733.906554	0.095475	0.281958	1852.595215
3733.907441	0.095471	0.281958	1937.278198
3733.908373	0.095464	0.281958	2026.250488
3733.909277	0.095424	0.281958	2112.513428
3734.910685	1.354321	0.293399	606.735901
3734.911618	0.649856	0.293399	1213.051514
3734.912520	0.096160	0.293399	1299.787598
3734.913439	0.095431	0.293399	1387.488647
3734.914359	0.095486	0.293399	1475.335571
3734.915265	0.095533	0.293399	1561.888916
3734.916156	0.095471	0.293399	1646.953735
3734.917091	0.095566	0.293399	1736.308350
3734.917990	0.095497	0.293399	1822.160034
3734.918890	0.095460	0.293399	1908.074219
3734.919774	0.095497	0.293399	1992.493408
3734.920707	0.095577	0.293399	2081.666992
3735.916237	1.319088	0.283759	579.079712
3735.917239	0.557758	0.283759	1137.952759
3735.918149	0.095793	0.283759	1225.124756
3735.919042	0.095511	0.283759	1310.416504
3735.919950	0.095566	0.283759	1397.190796
3735.920885	0.095610	0.283759	1486.586426
3735.921794	0.095566	0.283759	1573.456299
3735.922692	0.095563	0.283759	1659.271606
3735.923627	0.095647	0.283759	1748.701538
3735.924535	0.095618	0.283759	1835.522339
3735.925435	0.095544	0.283759	1921.512329
3735.926322	0.095511	0.283759	2006.230957
3736.926720	1.357474	0.292984	667.877380
3736.927641	0.594305	0.292984	1215.232666
3736.928535	0.096002	0.292984	1301.058594
3736.929421	0.095490	0.292984	1385.662354
3736.930368	0.095651	0.292984	1476.243530
3736.931260	0.095607	0.292984	1561.524658
3736.932162	0.095493	0.292984	1647.659546
3736.933048	0.095555	0.292984	1732.321655
3736.933998	0.095541	0.292984	1823.085449
3736.934908	0.095581	0.292984	1910.064209
3736.935806	0.095570	0.292984	1995.886108
3736.936731	0.095563	0.292984	2084.281738
3737.933834	1.380685	0.285104	694.484497
3737.934765	0.572596	0.285104	1227.571777
3737.935661	0.095742	0.285104	1313.356812
3737.936545	0.095486	0.285104	1397.766357
3737.937484	0.095570	0.285104	1487.506592
3737.938391	0.095515	0.285104	1574.138794
3737.939283	0.095519	0.285104	1659.341553
3737.940189	0.095559	0.285104	1745.918091
3737.941119	0.095533	0.285104	1834.764160
3737.942028	0.095511	0.285104	1921.584106
3737.942913	0.095475	0.285104	2006.079346
3737.943854	0.095500	0.285104	2095.945312
3738.941395	1.337289	0.296609	597.768127
3738.942296	0.713335	0.296609	1240.482910
3738.943228	0.096786	0.296609	1330.687378
3738.944129	0.095552	0.296609	1416.779541
3738.945024	0.095255	0.296609	1502.032837
3738.945913	0.095409	0.296609	1586.851440
3738.946848	0.095497	0.296609	1676.140991
3738.947758	0.095438	0.296609	1762.989746
3738.948659	0.095482	0.296609	1849.019165
3738.949549	0.095500	0.296609	1934.014648
3738.950490	0.095581	0.296609	2023.956421
3738.951400	0.095453	0.296609	2110.818604
3739.950798	1.331298	0.284254	584.439636
3739.951704	0.719392	0.284254	1236.208862
3739.952590	0.096727	0.284254	1321.909180
3739.953551	0.095500	0.284254	1413.685181
3739.954453	0.095519	0.284254	1499.843140
3739.955342	0.095394	0.284254	1584.648682
3739.956251	0.095431	0.284254	1671.395386
3739.957162	0.095511	0.284254	1758.406372
3739.958067	0.095479	0.284254	1844.814453
3739.958960	0.095416	0.284254	1930.021240
3739.959890	0.095427	0.284254	2018.768555
3739.960788	0.095588	0.284254	2104.606934
3740.957127	1.322703	0.297717	578.021057
3740.958096	0.620771	0.297717	1179.548584
3740.959023	0.095764	0.297717	1268.322021
3740.959920	0.095376	0.297717	1353.874268
3740.960875	0.095486	0.297717	1445.063232
3740.961780	0.095409	0.297717	1531.408325
3740.962700	0.095493	0.297717	1619.262085
3740.963588	0.095493	0.297717	1704.060059
3740.964542	0.095442	0.297717	1795.111572
3740.965432	0.095457	0.297717	1880.067871
3740.966325	0.095581	0.297717	1965.421753
3740.967264	0.095519	0.297717	2055.114014
3741.969098	1.329543	0.283304	583.669556
3741.970076	0.589277	0.283304	1159.982910
3741.970978	0.095845	0.283304	1246.434814
3741.971868	0.095416	0.283304	1331.355225
3741.972813	0.095431	0.283304	1421.537476
3741.973709	0.095599	0.283304	1507.194458
3741.974626	0.095391	0.283304	1594.667725
3741.975526	0.095457	0.283304	1680.578613
3741.976454	0.095453	0.283304	1769.158936
3741.977360	0.095490	0.283304	1855.672363
3741.978264	0.095453	0.283304	1941.961792
3741.979152	0.095424	0.283304	2026.697876
3742.972645	1.328390	0.294966	616.372925
3742.973572	0.638188	0.294966	1207.973633
3742.974485	0.096028	0.294966	1295.647095
3742.975383	0.095438	0.294966	1381.350586
3742.976326	0.095544	0.294966	1471.448975
3742.977227	0.095537	0.294966	1557.527954
3742.978122	0.095515	0.294966	1643.014038
3742.979006	0.095416	0.294966	1727.362061
3742.979947	0.095544	0.294966	1817.269409
3742.980851	0.095468	0.294966	1903.572021
3742.981747	0.095508	0.294966	1989.146973
3742.982667	0.095522	0.294966	2077.027588
3743.986906	1.353768	0.286994	613.257080
3743.987823	0.677314	0.286994	1234.354492
3743.988710	0.096420	0.286994	1319.878784
3743.989673	0.095559	0.286994	1411.902222
3743.990566	0.095537	0.286994	1497.216919
3743.991469	0.095526	0.286994	1583.477051
3743.992354	0.095482	0.286994	1667.978760
3743.993295	0.095537	0.286994	1757.879150
3743.994203	0.095500	0.286994	1844.593628
3743.995100	0.095508	0.286994	1930.264160
3743.996030	0.095570	0.286994	2019.144287
3743.996930	0.095625	0.286994	2105.206787
3744.989124	1.315649	0.294027	569.676208
3744.990085	0.695841	0.294027	1238.379395
3744.990999	0.095958	0.294027	1326.085205
3744.991890	0.095504	0.294027	1411.179443
3744.992778	0.095548	0.294027	1496.026123
3744.993721	0.095530	0.294027	1586.110718
3744.994613	0.095581	0.294027	1671.369019
3744.995523	0.095526	0.294027	1758.297852
3744.996419	0.095599	0.294027	1843.954834
3744.997375	0.095588	0.294027	1935.337280
3744.998276	0.095552	0.294027	2021.429443
3744.999168	0.095519	0.294027	2106.632324
3746.005198	1.331499	0.284254	589.854126
3746.006133	0.700822	0.284254	1245.122314
3746.007054	0.096156	0.284254	1333.682007
3746.007946	0.095471	0.284254	1418.842285
3746.008836	0.095508	0.284254	1503.844238
3746.009779	0.095596	0.284254	1593.990967
3746.010695	0.095530	0.284254	1681.496216
3746.011592	0.095522	0.284254	1767.179810
3746.012517	0.095537	0.284254	1855.551636
3746.013417	0.095596	0.284254	1941.587769
3746.014323	0.095497	0.284254	2028.107910
3746.015212	0.095394	0.284254	2112.913330
