time (s)	energy (uJ)	charge (mC)	voltage (mV)	crossing#mod 255
6294.611555	15.814600	8.955683	1.765873	248
6295.625392	16.162962	8.914226	1.813165	249
6296.628185	17.016745	8.957353	1.899752	250
6297.646475	16.923231	8.947360	1.891422	251
6298.647532	17.258905	8.950419	1.928279	252
6299.662062	17.496099	8.954631	1.953861	253
6300.661338	17.612476	8.955269	1.966717	254
6301.671205	16.793987	8.947631	1.876920	255
6302.679255	16.611975	8.927281	1.860810	0
6303.687317	16.445351	8.949031	1.837668	1
6304.702594	16.137264	8.941971	1.804665	2
6305.718164	17.150917	8.941828	1.918055	3
6306.721330	16.242750	8.935457	1.817786	4
6307.728960	15.828995	8.929961	1.772572	5
6308.747141	15.223987	8.954247	1.700197	6
6309.749745	15.265461	8.960886	1.703566	7
6310.750709	16.038345	8.933032	1.795398	8
6311.765701	15.901694	8.928137	1.781077	9
6312.770986	16.637978	8.931231	1.862899	10
6313.780204	16.468987	8.925522	1.845157	11
6314.792142	16.976889	8.946147	1.897676	12
6315.795295	17.633705	8.952915	1.969605	13
6316.808181	17.586372	8.957362	1.963343	14
6317.822854	17.672493	8.950852	1.974392	15
6318.822594	16.940786	8.950022	1.892821	16
6319.833059	16.732309	8.939303	1.871769	17
6320.837231	17.038902	8.954425	1.902847	18
6321.853563	16.638964	8.917106	1.865960	19
6322.855252	17.939039	8.948433	2.004713	20
6323.872304	17.558535	8.926134	1.967093	21
6324.873665	18.640076	8.929881	2.087382	22
6325.892009	17.848455	8.959555	1.992114	23
6326.894599	18.774069	8.948353	2.098047	24
6327.911532	18.090891	8.958879	2.019325	25
6328.913509	18.857809	8.918715	2.114409	26
6329.930133	18.666302	8.958728	2.083589	27
6330.931080	19.596645	8.960538	2.186995	28
6331.946532	19.128166	8.912895	2.146123	29
6332.947579	20.081104	8.962057	2.240680	30
6333.965182	19.918694	8.921186	2.232741	31
6334.964741	20.631554	8.915219	2.314195	32
6335.984283	21.031372	8.942719	2.351788	33
6336.987348	21.893314	8.955112	2.444784	34
6338.002879	21.677141	8.927947	2.428010	35
6339.017599	20.968767	8.958557	2.340641	36
6340.017441	20.379179	8.936266	2.280503	37
6341.026255	19.320232	8.968357	2.154267	38
6342.031652	18.961493	8.930891	2.123136	39
6343.041132	18.414127	8.920186	2.064321	40
6344.043024	20.003170	8.955448	2.233632	41
6345.066840	20.275009	8.951472	2.264992	42
6346.059415	20.861691	8.951046	2.330643	43
6347.071345	20.266943	8.909494	2.274758	44
6348.090290	19.302780	8.941760	2.158723	45
6349.084682	18.222597	8.925866	2.041550	46
6350.098738	16.512980	8.922571	1.850698	47
6351.099244	17.579855	8.950038	1.964221	48
6352.129968	17.860889	8.953597	1.994829	49
6353.120871	18.401878	8.924492	2.061953	50
6354.133531	18.484440	8.918914	2.072499	51
6355.141662	18.283504	8.949320	2.043005	52
6356.149751	18.993402	8.923711	2.128420	53
6357.165723	19.272955	8.950036	2.153394	54
6358.170888	20.143442	8.956703	2.248980	55
6359.186381	20.410879	8.923230	2.287387	56
6360.189698	20.753250	8.915214	2.327847	57
6361.203115	21.114836	8.923510	2.366203	58
6362.209749	21.140411	8.913716	2.371672	59
6363.219785	21.203020	8.932060	2.373811	60
6364.228345	20.959450	8.938707	2.344797	61
6365.235657	20.724113	8.924163	2.322248	62
6366.244598	20.316486	8.942856	2.271812	63
6367.252070	20.291538	8.922292	2.274252	64
6368.261565	19.441616	8.923708	2.178648	65
6369.270531	20.038458	8.947009	2.239682	66
6370.281346	19.937708	8.929658	2.232752	67
6371.289315	20.293341	8.903572	2.279236	68
6372.297505	20.676477	8.945540	2.311373	69
6373.307757	20.969505	8.917004	2.351631	70
6374.315890	21.135014	8.936301	2.365074	71
6375.327291	21.321733	8.937557	2.385633	72
6376.331284	21.289555	8.927735	2.384653	73
6377.344064	21.995872	8.933402	2.462206	74
6378.357246	21.709566	8.924819	2.432494	75
6379.357919	22.475782	8.924367	2.518474	76
6380.360599	22.370060	8.910277	2.510591	77
6381.370333	21.565472	8.936399	2.413217	78
6382.378121	21.891195	8.922523	2.453476	79
6383.385315	21.387968	8.936627	2.393293	80
6384.398922	21.537716	8.949895	2.406477	81
6385.403794	22.404432	8.928473	2.509324	82
6386.420480	21.873135	8.915812	2.453297	83
6387.424877	23.127563	8.923756	2.591685	84
6388.441479	21.864292	8.947908	2.443509	85
6389.445820	22.235741	8.950423	2.484323	86
6390.455899	20.594143	8.891124	2.316259	87
6391.465161	20.547201	8.952283	2.295191	88
6392.470034	20.091780	8.942701	2.246724	89
6393.483608	20.155827	8.949891	2.252075	90
6394.486600	20.552979	8.916397	2.305077	91
6395.500197	20.958591	8.931233	2.346663	92
6396.515228	21.984983	8.919496	2.464824	93
6397.517249	21.538586	8.958191	2.404346	94
6398.523557	22.038044	8.950595	2.462188	95
6399.534778	21.588167	8.940655	2.414607	96
6400.542709	21.917528	8.941876	2.451111	97
6401.551534	21.743965	8.935751	2.433367	98
6402.561961	22.064749	8.926262	2.471891	99
6403.569134	22.351543	8.909149	2.508831	100
6404.590988	22.743475	8.957190	2.539131	101
6405.586642	22.453308	8.948535	2.509161	102
6406.597304	22.471935	8.933084	2.515585	103
6407.603978	22.450815	8.937839	2.511884	104
6408.614912	22.412170	8.922630	2.511835	105
6409.621464	22.434774	8.943200	2.508585	106
6410.632226	22.662411	8.943243	2.534026	107
6411.641178	22.492474	8.898128	2.527776	108
6412.648087	23.031824	8.943198	2.575345	109
6413.658843	22.383347	8.939021	2.504004	110
6414.663733	22.956156	8.923236	2.572627	111
6415.677686	22.203720	8.923571	2.488210	112
6416.681360	23.115213	8.929312	2.588689	113
6417.695791	23.004110	8.920830	2.578696	114
6418.700087	23.831854	8.922173	2.671082	115
6419.713241	23.899872	8.944357	2.672062	116
6420.718611	24.034048	8.949193	2.685611	117
6421.728418	23.787809	8.940038	2.660818	118
6422.737260	22.952623	8.937721	2.568062	119
6423.743339	23.148880	8.909401	2.598253	120
6424.756185	22.178431	8.916069	2.487468	121
6425.759795	22.879747	8.932869	2.561299	122
6426.775268	22.403847	8.941099	2.505715	123
6427.777231	23.463131	8.942132	2.623886	124
6428.793507	23.463120	8.922384	2.629692	125
6429.796981	24.001915	8.944136	2.683537	126
6430.809155	23.706907	8.924465	2.656395	127
6431.816224	23.333797	8.937901	2.610657	128
6432.825508	23.481445	8.901649	2.637876	129
6433.834381	22.834450	8.938714	2.554557	130
6434.841313	23.556086	8.931919	2.637293	131
6435.853092	23.235792	8.939601	2.599198	132
6436.858840	23.853350	8.912217	2.676478	133
6437.872651	23.855440	8.939164	2.668643	134
6438.876536	24.402386	8.927584	2.733370	135
6439.891926	24.382751	8.916660	2.734516	136
6440.896286	25.012918	8.917191	2.805022	137
6441.909538	25.215548	8.926696	2.824735	138
6442.913023	25.893742	8.951968	2.892519	139
6443.927472	25.852821	8.896230	2.906043	140
6444.931358	26.533031	8.925132	2.972845	141
6445.944486	26.666431	8.911722	2.992287	142
6446.948180	27.218166	8.936185	3.045837	143
6447.962141	27.178650	8.933593	3.042298	144
6448.965475	27.514797	8.937434	3.078602	145
6449.990080	26.922245	8.921755	3.017595	146
6450.981914	27.263807	8.948097	3.046884	147
6451.993377	26.434952	8.919851	2.963609	148
6453.009302	26.542147	8.936576	2.970058	149
6454.007692	25.578024	8.943621	2.859918	150
6455.015387	25.922586	8.935439	2.901098	151
6456.022777	24.867006	8.928948	2.784987	152
6457.045850	25.576014	8.935999	2.862133	153
6458.039653	25.104370	8.909043	2.817853	154
6459.056017	24.549112	8.906937	2.756179	155
6460.059723	25.943586	8.914497	2.910269	156
6461.075940	25.029913	8.904218	2.811018	157
6462.079629	26.496035	8.915556	2.971888	158
6463.095839	25.624767	8.932996	2.868553	159
6464.100894	26.124607	8.930603	2.925291	160
6465.111814	25.228785	8.925095	2.826725	161
6466.119089	24.682316	8.915291	2.768538	162
6467.126690	23.921886	8.939715	2.675912	163
6468.136738	23.718145	8.945321	2.651459	164
6469.141449	23.517326	8.944495	2.629251	165
6470.154663	23.259050	8.929926	2.604619	166
6471.158192	23.677591	8.910976	2.657127	167
6472.171801	23.790089	8.947605	2.658822	168
6473.175383	24.554272	8.903234	2.757905	169
6474.189560	24.758965	8.926019	2.773797	170
6475.194616	25.145834	8.913510	2.821092	171
6476.209113	24.646177	8.925236	2.761404	172
6477.224366	26.342676	8.922179	2.952494	173
6478.225628	25.704409	8.939892	2.875248	174
6479.231313	26.607975	8.929604	2.979749	175
6480.243393	25.924648	8.944446	2.898408	176
6481.248637	27.009747	8.905090	3.033068	177
6482.261745	25.815605	8.950396	2.884298	178
6483.265717	27.422161	8.943337	3.066211	179
6484.280789	26.475363	8.952079	2.957454	180
6485.284802	27.656130	8.914743	3.102291	181
6486.298970	27.159258	8.941762	3.037350	182
6487.302649	28.406473	8.913820	3.186790	183
6488.316520	28.058949	8.898903	3.153080	184
6489.321373	29.123842	8.955212	3.252167	185
6490.334371	28.596762	8.947564	3.196039	186
6491.339728	28.760796	8.914064	3.226451	187
6492.352849	28.503073	8.930922	3.191504	188
6493.358836	28.030453	8.947634	3.132722	189
6494.369597	27.154503	8.877613	3.058762	190
6495.377579	26.321617	8.941566	2.943737	191
6496.384310	26.069691	8.943996	2.914770	192
6497.394177	25.404869	8.898011	2.855118	193
6498.399713	25.850618	8.921608	2.897529	194
6499.413050	24.917852	8.925314	2.791818	195
6500.416867	26.471281	8.944341	2.959557	196
6501.429599	26.355492	8.950538	2.944571	197
6502.433043	27.619921	8.930224	3.092859	198
6503.446730	27.291624	8.944533	3.051207	199
6504.451098	28.080858	8.934526	3.142960	200
6505.462755	27.808228	8.931438	3.113522	201
6506.468764	27.466228	8.922174	3.078424	202
6507.479172	27.080942	8.912836	3.038420	203
6508.487187	26.390789	8.939827	2.952047	204
6509.495744	26.171406	8.927697	2.931485	205
6510.505617	25.608753	8.965160	2.856475	206
6511.512593	25.627199	8.952864	2.862458	207
6512.524010	24.729815	8.923444	2.771331	208
6513.530404	25.183622	8.931664	2.819589	209
6514.542076	24.813889	8.940661	2.775398	210
6515.547227	25.512800	8.916726	2.861230	211
6516.560235	25.129566	8.924152	2.815905	212
6517.565885	26.066538	8.932870	2.918048	213
6518.578471	25.309589	8.933968	2.832962	214
6519.583409	26.639015	8.948496	2.976927	215
6520.594517	25.900940	8.943448	2.896080	216
6521.601723	26.806431	8.952085	2.994434	217
6522.613430	25.598478	8.913156	2.871988	218
6523.620238	26.861034	8.908027	3.015374	219
6524.630398	25.981596	8.937109	2.907159	220
6525.637551	27.128355	8.928284	3.038474	221
6526.647241	25.896099	8.946505	2.894550	222
6527.656796	26.633102	8.912454	2.988302	223
6528.664002	26.102394	8.947392	2.917319	224
6529.674772	26.634373	8.942410	2.978433	225
6530.681022	26.227911	8.930594	2.936861	226
6531.693275	26.554914	8.911995	2.979683	227
6532.697190	27.046835	8.937289	3.026291	228
6533.711581	27.236725	8.914462	3.055341	229
6534.715128	27.624687	8.911226	3.099988	230
6535.728310	28.009865	8.943254	3.131955	231
6536.733669	28.297352	8.938926	3.165632	232
6537.744735	28.048445	8.908445	3.148523	233
6538.750507	28.138489	8.941211	3.147056	234
6539.762056	27.409702	8.922025	3.072140	235
6540.769173	27.089146	8.926940	3.034539	236
6541.776829	26.946272	8.946445	3.011953	237
6542.787151	26.401026	8.938583	2.953603	238
6543.793574	26.596725	8.945168	2.973307	239
6544.806450	25.742451	8.944014	2.878177	240
6545.810868	26.894512	8.945508	3.006482	241
6546.823790	26.267506	8.930292	2.941394	242
6547.828240	27.444576	8.923847	3.075420	243
6548.842144	26.965618	8.950225	3.012843	244
6549.846991	28.251942	8.927176	3.164712	245
6550.860200	27.502619	8.918618	3.083731	246
6551.865628	28.360312	8.933696	3.174533	247
6552.878921	28.118626	8.945704	3.143255	248
6553.883737	29.020910	8.942715	3.245202	249
6554.897120	28.547722	8.915612	3.201993	250
6555.900316	29.727936	8.951797	3.320891	251
6556.914965	29.022816	8.912325	3.256481	252
6557.918473	30.111704	8.932031	3.371205	253
6558.932758	29.500305	8.920142	3.307157	254
6559.936316	30.190676	8.915780	3.386207	255
6560.950771	29.950163	8.937378	3.351113	0
6561.955274	30.108471	8.944297	3.366220	1
6562.968546	29.365440	8.926310	3.289763	2
6563.972528	29.750694	8.922547	3.334328	3
6564.985253	28.929674	8.938940	3.236365	4
6565.991419	28.830606	8.936498	3.226164	5
6567.001393	27.832260	8.916562	3.121412	6
6568.009709	27.475813	8.944640	3.071763	7
6569.018583	26.622557	8.941487	2.977419	8
6570.027494	26.951490	8.941185	3.014309	9
6571.034880	26.502176	8.930850	2.967487	10
6572.046159	26.497131	8.940826	2.963611	11
6573.051886	26.944366	8.935900	3.015294	12
6574.064483	27.078787	8.912868	3.038168	13
6575.068775	27.722342	8.912902	3.110361	14
6576.081400	28.189075	8.946491	3.150852	15
6577.085678	28.829786	8.953596	3.219912	16
6578.099273	28.996487	8.947219	3.240838	17
6579.104330	28.686630	8.920987	3.215634	18
6580.116702	28.969604	8.943856	3.239051	19
6581.121934	28.366974	8.917628	3.181000	20
6582.132537	28.677336	8.916894	3.216068	21
6583.139199	28.087725	8.938303	3.142400	22
6584.149414	28.087938	8.941686	3.141235	23
6585.157622	27.036200	8.911440	3.033876	24
6586.166529	27.345335	8.907183	3.070032	25
6587.175606	26.631207	8.941035	2.978537	26
6588.183628	27.171650	8.940566	3.039142	27
6589.193890	26.447704	8.937697	2.959118	28
6590.201621	27.086487	8.946991	3.027441	29
6591.222115	27.295565	8.929802	3.056682	30
6592.220265	26.980865	8.949587	3.014761	31
6593.228659	26.598480	8.935148	2.976837	32
6594.237406	26.950773	8.925609	3.019489	33
6595.245893	26.642017	8.903181	2.992416	34
6596.255986	27.005590	8.882623	3.040272	35
6597.263571	26.970943	8.936245	3.018152	36
6598.273136	27.483000	8.919454	3.081243	37
6599.281329	26.882385	8.923389	3.012576	38
6600.292281	27.563656	8.915237	3.091747	39
6601.299114	27.258945	8.922856	3.054958	40
6602.309089	28.099735	8.917682	3.151013	41
